Kad
Integration time [ms]: 150,000
Averaging Nr. [scans]: 1
Smoothing Nr. [pixels]: 0
Data measured with spectrometer [name]: 1804341U2
Wave   ;Sample   ;Dark     ;Reference;Scope Corrected for Dark
[nm]   ;[counts] ;[counts] ;[counts] 

 317,76;   75,000;  257,000;    0,000;-182,00000
 317,78;   42,000;  126,000;    0,000;-84,00000
 317,80;  -91,000;    1,000;    0,000;-92,00000
 317,82;    7,000;  805,000;    0,000;-798,00000
 317,84;   39,000; -108,000;    0,000;147,00000
 317,86;  -27,000; -150,000;    0,000;123,00000
 317,88;  -51,000;  311,000;    0,000;-362,00000
 317,90;   48,000;   40,000;    0,000; 8,00000
 317,92;  -24,000; -277,000;    0,000;253,00000
 317,94;  147,000;  112,000;    0,000;35,00000
 317,96;  -21,000;   81,000;    0,000;-102,00000
 317,98;   20,000;  -43,000;    0,000;63,00000
 318,00;  -20,000; -338,000;    0,000;318,00000
 318,02;   63,000; -123,000;    0,000;186,00000
 318,04;  -54,000; -244,000;    0,000;190,00000
 318,05;  -53,000;  190,000;    0,000;-243,00000
 318,07;   90,000; -229,000;    0,000;319,00000
 318,09;  113,000;   23,000;    0,000;90,00000
 318,11;   74,000;  723,000;    0,000;-649,00000
 318,13;  -26,000;  340,000;    0,000;-366,00000
 318,15;   12,000;  105,000;    0,000;-93,00000
 318,17;  -88,000; -259,000;    0,000;171,00000
 318,19;   47,000;  154,000;    0,000;-107,00000
 318,21;   70,000;  117,000;    0,000;-47,00000
 318,23;   41,000; -120,000;    0,000;161,00000
 318,25; -125,000; -164,000;    0,000;39,00000
 318,27;   68,000;  367,000;    0,000;-299,00000
 318,29;  -61,000;  131,000;    0,000;-192,00000
 318,30;  -21,000; -147,000;    0,000;126,00000
 318,32;   24,000; -174,000;    0,000;198,00000
 318,34;   40,000;    4,000;    0,000;36,00000
 318,36;    1,000;  227,000;    0,000;-226,00000
 318,38;   46,000; -204,000;    0,000;250,00000
 318,40;   55,000;   74,000;    0,000;-19,00000
 318,42;   46,000;  179,000;    0,000;-133,00000
 318,44;   11,000;  136,000;    0,000;-125,00000
 318,46;  -81,000;  -66,000;    0,000;-15,00000
 318,48;  -20,000; -374,000;    0,000;354,00000
 318,50;  -64,000;   57,000;    0,000;-121,00000
 318,52;  188,000;  593,000;    0,000;-405,00000
 318,54;  188,000; -100,000;    0,000;288,00000
 318,55;  -33,000; -145,000;    0,000;112,00000
 318,57;  -36,000;  313,000;    0,000;-349,00000
 318,59;  137,000;   46,000;    0,000;91,00000
 318,61;   40,000;   -9,000;    0,000;49,00000
 318,63;   13,000; -112,000;    0,000;125,00000
 318,65;   12,000;  474,000;    0,000;-462,00000
 318,67;  -45,000;  -60,000;    0,000;15,00000
 318,69;   55,000;  -47,000;    0,000;102,00000
 318,71;   13,000; -103,000;    0,000;116,00000
 318,73;   29,000;  288,000;    0,000;-259,00000
 318,75;   63,000;  293,000;    0,000;-230,00000
 318,77;   94,000;  -56,000;    0,000;150,00000
 318,79;   57,000;  326,000;    0,000;-269,00000
 318,80;  -29,000;  303,000;    0,000;-332,00000
 318,82;   12,000;  384,000;    0,000;-372,00000
 318,84;   94,000; -193,000;    0,000;287,00000
 318,86;  126,000;  298,000;    0,000;-172,00000
 318,88;  -11,000;  149,000;    0,000;-160,00000
 318,90;   57,000;  357,000;    0,000;-300,00000
 318,92;  -10,000;   52,000;    0,000;-62,00000
 318,94;    4,000;  325,000;    0,000;-321,00000
 318,96;   17,000;   71,000;    0,000;-54,00000
 318,98;  -12,000;  322,000;    0,000;-334,00000
 319,00;   57,000;  -45,000;    0,000;102,00000
 319,02;  -38,000; -248,000;    0,000;210,00000
 319,03;   38,000;   23,000;    0,000;15,00000
 319,05;  -58,000;  -91,000;    0,000;33,00000
 319,07;  -44,000;  145,000;    0,000;-189,00000
 319,09;   24,000;  183,000;    0,000;-159,00000
 319,11;   23,000;  176,000;    0,000;-153,00000
 319,13;   -2,000;  409,000;    0,000;-411,00000
 319,15;  -45,000; -303,000;    0,000;258,00000
 319,17;   43,000;  -80,000;    0,000;123,00000
 319,19;  -66,000;   74,000;    0,000;-140,00000
 319,21;   43,000;  544,000;    0,000;-501,00000
 319,23;   45,000; -255,000;    0,000;300,00000
 319,25;   21,000; -174,000;    0,000;195,00000
 319,26;  -78,000;  152,000;    0,000;-230,00000
 319,28;   10,000;  189,000;    0,000;-179,00000
 319,30;   44,000; -340,000;    0,000;384,00000
 319,32;   52,000;  -70,000;    0,000;122,00000
 319,34;   33,000;  659,000;    0,000;-626,00000
 319,36;   54,000;  504,000;    0,000;-450,00000
 319,38;   93,000; -315,000;    0,000;408,00000
 319,40;   37,000;   60,000;    0,000;-23,00000
 319,42; -112,000;  -19,000;    0,000;-93,00000
 319,44;  -16,000;  291,000;    0,000;-307,00000
 319,46;   59,000;  220,000;    0,000;-161,00000
 319,47;   76,000;  258,000;    0,000;-182,00000
 319,49;  -17,000;   92,000;    0,000;-109,00000
 319,51;  -19,000;  240,000;    0,000;-259,00000
 319,53;  -16,000; -318,000;    0,000;302,00000
 319,55;   33,000; -140,000;    0,000;173,00000
 319,57;   58,000;  389,000;    0,000;-331,00000
 319,59;  -37,000;   62,000;    0,000;-99,00000
 319,61;  117,000; -164,000;    0,000;281,00000
 319,63;   23,000;   -7,000;    0,000;30,00000
 319,65;   35,000;  308,000;    0,000;-273,00000
 319,67;  -52,000;  266,000;    0,000;-318,00000
 319,68;   -4,000;   33,000;    0,000;-37,00000
 319,70;  -12,000;  120,000;    0,000;-132,00000
 319,72;   -8,000;   99,000;    0,000;-107,00000
 319,74;  -15,000;  -44,000;    0,000;29,00000
 319,76;   38,000;  -71,000;    0,000;109,00000
 319,78;   41,000;  158,000;    0,000;-117,00000
 319,80;   16,000;  150,000;    0,000;-134,00000
 319,82;  107,000;  855,000;    0,000;-748,00000
 319,84;   43,000;  -16,000;    0,000;59,00000
 319,86;   26,000;  110,000;    0,000;-84,00000
 319,88;   39,000;  297,000;    0,000;-258,00000
 319,89;  183,000;  435,000;    0,000;-252,00000
 319,91; -106,000; -288,000;    0,000;182,00000
 319,93;   49,000;  326,000;    0,000;-277,00000
 319,95; -111,000;  -39,000;    0,000;-72,00000
 319,97;  -71,000;  402,000;    0,000;-473,00000
 319,99;   34,000; -180,000;    0,000;214,00000
 320,01;   32,000; -154,000;    0,000;186,00000
 320,03;   17,000;   77,000;    0,000;-60,00000
 320,05;   18,000;  904,000;    0,000;-886,00000
 320,07;   93,000;   43,000;    0,000;50,00000
 320,08;   58,000;  276,000;    0,000;-218,00000
 320,10;  -10,000;  311,000;    0,000;-321,00000
 320,12;   -4,000;  142,000;    0,000;-146,00000
 320,14;   81,000;  -52,000;    0,000;133,00000
 320,16;  -34,000;  -79,000;    0,000;45,00000
 320,18;   71,000;    0,000;    0,000;71,00000
 320,20;   50,000;  389,000;    0,000;-339,00000
 320,22;   16,000; -173,000;    0,000;189,00000
 320,24;  186,000;  290,000;    0,000;-104,00000
 320,26;   47,000;  139,000;    0,000;-92,00000
 320,28;   77,000;   94,000;    0,000;-17,00000
 320,29;  -63,000;   45,000;    0,000;-108,00000
 320,31;  -13,000;   65,000;    0,000;-78,00000
 320,33;   -7,000;  299,000;    0,000;-306,00000
 320,35;   13,000;  667,000;    0,000;-654,00000
 320,37;   39,000;  -11,000;    0,000;50,00000
 320,39;   84,000;    4,000;    0,000;80,00000
 320,41;  -38,000;  103,000;    0,000;-141,00000
 320,43;  158,000;  367,000;    0,000;-209,00000
 320,45;  -31,000; -282,000;    0,000;251,00000
 320,46;  147,000; -234,000;    0,000;381,00000
 320,48;   24,000;  244,000;    0,000;-220,00000
 320,50;  -24,000;  109,000;    0,000;-133,00000
 320,52;   57,000;  -66,000;    0,000;123,00000
 320,54;   90,000;   93,000;    0,000;-3,00000
 320,56;   -6,000;  289,000;    0,000;-295,00000
 320,58;   23,000;  626,000;    0,000;-603,00000
 320,60;  -82,000;  -61,000;    0,000;-21,00000
 320,62;    0,000;    7,000;    0,000;-7,00000
 320,64;    7,000;  261,000;    0,000;-254,00000
 320,65; -102,000;   44,000;    0,000;-146,00000
 320,67;  -16,000; -359,000;    0,000;343,00000
 320,69;   38,000;  -67,000;    0,000;105,00000
 320,71;   42,000;  474,000;    0,000;-432,00000
 320,73;  -17,000;   38,000;    0,000;-55,00000
 320,75;  -31,000; -100,000;    0,000;69,00000
 320,77;   23,000; -286,000;    0,000;309,00000
 320,79;   61,000;  207,000;    0,000;-146,00000
 320,81;   70,000;  259,000;    0,000;-189,00000
 320,83;  -46,000;  151,000;    0,000;-197,00000
 320,84;   70,000;  370,000;    0,000;-300,00000
 320,86;  -52,000;  503,000;    0,000;-555,00000
 320,88;   14,000;  181,000;    0,000;-167,00000
 320,90;  -49,000;  -88,000;    0,000;39,00000
 320,92;  162,000;  225,000;    0,000;-63,00000
 320,94;   31,000;   97,000;    0,000;-66,00000
 320,96;  -71,000;   79,000;    0,000;-150,00000
 320,98;   79,000; -129,000;    0,000;208,00000
 321,00;   13,000;  -30,000;    0,000;43,00000
 321,01;  -15,000;  421,000;    0,000;-436,00000
 321,03; -131,000; -478,000;    0,000;347,00000
 321,05;  -43,000;  182,000;    0,000;-225,00000
 321,07;  -33,000; -161,000;    0,000;128,00000
 321,09;    9,000;  369,000;    0,000;-360,00000
 321,11; -114,000;  196,000;    0,000;-310,00000
 321,13;  -51,000; -277,000;    0,000;226,00000
 321,15;    0,000;   67,000;    0,000;-67,00000
 321,17;   22,000;  334,000;    0,000;-312,00000
 321,18;   -6,000;   62,000;    0,000;-68,00000
 321,20;  -37,000; -208,000;    0,000;171,00000
 321,22;  116,000;  249,000;    0,000;-133,00000
 321,24;  -20,000;  284,000;    0,000;-304,00000
 321,26;   36,000;  293,000;    0,000;-257,00000
 321,28;   47,000;  -97,000;    0,000;144,00000
 321,30;   31,000;  154,000;    0,000;-123,00000
 321,32;   64,000;  159,000;    0,000;-95,00000
 321,34;   37,000;  390,000;    0,000;-353,00000
 321,35;  -48,000; -281,000;    0,000;233,00000
 321,37;  -23,000;  209,000;    0,000;-232,00000
 321,39;   88,000;  -23,000;    0,000;111,00000
 321,41;  -55,000;  187,000;    0,000;-242,00000
 321,43;    5,000;  -99,000;    0,000;104,00000
 321,45;    5,000;  -47,000;    0,000;52,00000
 321,47;  133,000;  433,000;    0,000;-300,00000
 321,49;  -31,000;  298,000;    0,000;-329,00000
 321,51;  -91,000; -406,000;    0,000;315,00000
 321,52;  112,000;  264,000;    0,000;-152,00000
 321,54;   35,000;  139,000;    0,000;-104,00000
 321,56;   62,000;  190,000;    0,000;-128,00000
 321,58;   29,000; -277,000;    0,000;306,00000
 321,60;   64,000;   29,000;    0,000;35,00000
 321,62;  -82,000;  -20,000;    0,000;-62,00000
 321,64;   73,000;  449,000;    0,000;-376,00000
 321,66;  -25,000; -325,000;    0,000;300,00000
 321,67;   -8,000;  -85,000;    0,000;77,00000
 321,69;    2,000;   73,000;    0,000;-71,00000
 321,71;    0,000;  100,000;    0,000;-100,00000
 321,73;   37,000;  381,000;    0,000;-344,00000
 321,75;   -3,000;  709,000;    0,000;-712,00000
 321,77;   -2,000;  216,000;    0,000;-218,00000
 321,79;  -22,000;  242,000;    0,000;-264,00000
 321,81;  -28,000; -106,000;    0,000;78,00000
 321,83;   50,000;  -44,000;    0,000;94,00000
 321,84;    9,000;  211,000;    0,000;-202,00000
 321,86;   26,000;  568,000;    0,000;-542,00000
 321,88;   29,000;  269,000;    0,000;-240,00000
 321,90;  127,000;  263,000;    0,000;-136,00000
 321,92;  -15,000;  184,000;    0,000;-199,00000
 321,94;  -26,000; -151,000;    0,000;125,00000
 321,96;  -17,000; -188,000;    0,000;171,00000
 321,98;  -28,000;  118,000;    0,000;-146,00000
 321,99;   92,000;  166,000;    0,000;-74,00000
 322,01;  -48,000;  -50,000;    0,000; 2,00000
 322,03;   -3,000;  -57,000;    0,000;54,00000
 322,05;  -25,000; -122,000;    0,000;97,00000
 322,07;  -26,000;   97,000;    0,000;-123,00000
 322,09; -123,000; -235,000;    0,000;112,00000
 322,11;   78,000; -125,000;    0,000;203,00000
 322,13;   16,000;   51,000;    0,000;-35,00000
 322,14;   -8,000; -111,000;    0,000;103,00000
 322,16;  -56,000;  -24,000;    0,000;-32,00000
 322,18; -129,000; -455,000;    0,000;326,00000
 322,20;   72,000; -101,000;    0,000;173,00000
 322,22;  -16,000;  232,000;    0,000;-248,00000
 322,24;  -41,000;  546,000;    0,000;-587,00000
 322,26;  -34,000;   16,000;    0,000;-50,00000
 322,28;  -19,000;  -36,000;    0,000;17,00000
 322,29;   -6,000;  432,000;    0,000;-438,00000
 322,31;   33,000;  200,000;    0,000;-167,00000
 322,33;  142,000; -211,000;    0,000;353,00000
 322,35;   56,000;  256,000;    0,000;-200,00000
 322,37;   25,000;  232,000;    0,000;-207,00000
 322,39;  -34,000;   -4,000;    0,000;-30,00000
 322,41;  -33,000; -244,000;    0,000;211,00000
 322,43;   52,000; -216,000;    0,000;268,00000
 322,44;  -60,000; -272,000;    0,000;212,00000
 322,46;  -24,000; -134,000;    0,000;110,00000
 322,48;   39,000;  -30,000;    0,000;69,00000
 322,50;   47,000;   -2,000;    0,000;49,00000
 322,52;   24,000;  560,000;    0,000;-536,00000
 322,54;   45,000;  202,000;    0,000;-157,00000
 322,56;   92,000; -253,000;    0,000;345,00000
 322,58;   29,000;  -53,000;    0,000;82,00000
 322,59; -122,000; -279,000;    0,000;157,00000
 322,61;   -5,000;  742,000;    0,000;-747,00000
 322,63;   33,000;   13,000;    0,000;20,00000
 322,65;  111,000;  175,000;    0,000;-64,00000
 322,67;  -29,000;   60,000;    0,000;-89,00000
 322,69;  174,000;  422,000;    0,000;-248,00000
 322,71;    0,000;  -73,000;    0,000;73,00000
 322,73;   -8,000;    6,000;    0,000;-14,00000
 322,74;  126,000;  360,000;    0,000;-234,00000
 322,76;   25,000;  186,000;    0,000;-161,00000
 322,78;    5,000; -131,000;    0,000;136,00000
 322,80;  111,000;   25,000;    0,000;86,00000
 322,82;   42,000;  429,000;    0,000;-387,00000
 322,84;   86,000;  578,000;    0,000;-492,00000
 322,86;   27,000;  109,000;    0,000;-82,00000
 322,87;   24,000;  -20,000;    0,000;44,00000
 322,89;  -82,000;  -41,000;    0,000;-41,00000
 322,91;  -28,000;  192,000;    0,000;-220,00000
 322,93;   61,000; -129,000;    0,000;190,00000
 322,95;   81,000;  878,000;    0,000;-797,00000
 322,97;   42,000;  216,000;    0,000;-174,00000
 322,99;  -38,000;  221,000;    0,000;-259,00000
 323,01;  -66,000;  -10,000;    0,000;-56,00000
 323,02;  -20,000;  121,000;    0,000;-141,00000
 323,04;  -35,000;  321,000;    0,000;-356,00000
 323,06;   26,000;  322,000;    0,000;-296,00000
 323,08;  117,000;  -17,000;    0,000;134,00000
 323,10;  -32,000; -109,000;    0,000;77,00000
 323,12;   94,000;  423,000;    0,000;-329,00000
 323,14;   72,000;  400,000;    0,000;-328,00000
 323,15;  -15,000; -145,000;    0,000;130,00000
 323,17;   66,000;  249,000;    0,000;-183,00000
 323,19;  -16,000;  154,000;    0,000;-170,00000
 323,21;  -78,000; -373,000;    0,000;295,00000
 323,23;  -22,000; -454,000;    0,000;432,00000
 323,25;   24,000; -173,000;    0,000;197,00000
 323,27;   45,000;  359,000;    0,000;-314,00000
 323,29;  -75,000;  285,000;    0,000;-360,00000
 323,30;   -7,000; -124,000;    0,000;117,00000
 323,32;   28,000;  161,000;    0,000;-133,00000
 323,34;  -84,000;  210,000;    0,000;-294,00000
 323,36;  -12,000;  273,000;    0,000;-285,00000
 323,38;   11,000;   21,000;    0,000;-10,00000
 323,40;  136,000;  130,000;    0,000; 6,00000
 323,42;  -90,000;  305,000;    0,000;-395,00000
 323,43;    1,000;  295,000;    0,000;-294,00000
 323,45;   14,000; -205,000;    0,000;219,00000
 323,47;   -5,000;  298,000;    0,000;-303,00000
 323,49;   48,000;    1,000;    0,000;47,00000
 323,51;   94,000;  458,000;    0,000;-364,00000
 323,53;  -71,000; -120,000;    0,000;49,00000
 323,55;   10,000;   39,000;    0,000;-29,00000
 323,56;  -28,000;  -13,000;    0,000;-15,00000
 323,58; -125,000; -262,000;    0,000;137,00000
 323,60;   69,000;    3,000;    0,000;66,00000
 323,62;   56,000;  128,000;    0,000;-72,00000
 323,64;  -23,000;  648,000;    0,000;-671,00000
 323,66;   23,000;  483,000;    0,000;-460,00000
 323,68;   22,000; -285,000;    0,000;307,00000
 323,69;   48,000;   93,000;    0,000;-45,00000
 323,71;  -12,000;  560,000;    0,000;-572,00000
 323,73;  -50,000;  182,000;    0,000;-232,00000
 323,75;  -12,000; -220,000;    0,000;208,00000
 323,77;   10,000;   75,000;    0,000;-65,00000
 323,79;   30,000;  127,000;    0,000;-97,00000
 323,81;   55,000;  638,000;    0,000;-583,00000
 323,82;  175,000; -209,000;    0,000;384,00000
 323,84;   77,000;   90,000;    0,000;-13,00000
 323,86;  143,000;  516,000;    0,000;-373,00000
 323,88;   -2,000;  383,000;    0,000;-385,00000
 323,90;    8,000; -295,000;    0,000;303,00000
 323,92;   63,000;  401,000;    0,000;-338,00000
 323,94;   35,000;  -45,000;    0,000;80,00000
 323,95;   21,000;   46,000;    0,000;-25,00000
 323,97;   15,000;  116,000;    0,000;-101,00000
 323,99;  105,000;   32,000;    0,000;73,00000
 324,01;  -14,000; -225,000;    0,000;211,00000
 324,03;  103,000;  367,000;    0,000;-264,00000
 324,05;  139,000;  -85,000;    0,000;224,00000
 324,06;   69,000;  264,000;    0,000;-195,00000
 324,08;  -13,000;  402,000;    0,000;-415,00000
 324,10;  -46,000;   71,000;    0,000;-117,00000
 324,12;   14,000;  144,000;    0,000;-130,00000
 324,14;   75,000;   65,000;    0,000;10,00000
 324,16;   21,000;  162,000;    0,000;-141,00000
 324,18;  -43,000;  -23,000;    0,000;-20,00000
 324,19;  133,000;  256,000;    0,000;-123,00000
 324,21;    8,000;  100,000;    0,000;-92,00000
 324,23;    4,000; -193,000;    0,000;197,00000
 324,25;  -44,000;   17,000;    0,000;-61,00000
 324,27;  -15,000; -361,000;    0,000;346,00000
 324,29;   30,000;    4,000;    0,000;26,00000
 324,31;   32,000;  258,000;    0,000;-226,00000
 324,32;  119,000;  487,000;    0,000;-368,00000
 324,34;  112,000; -237,000;    0,000;349,00000
 324,36;   -2,000;   63,000;    0,000;-65,00000
 324,38;   -3,000;  158,000;    0,000;-161,00000
 324,40;  105,000;  423,000;    0,000;-318,00000
 324,42;  -90,000; -304,000;    0,000;214,00000
 324,43;  147,000;  265,000;    0,000;-118,00000
 324,45;   11,000;  354,000;    0,000;-343,00000
 324,47;   76,000;  423,000;    0,000;-347,00000
 324,49;  -23,000;  162,000;    0,000;-185,00000
 324,51;   -2,000; -168,000;    0,000;166,00000
 324,53;   38,000;  385,000;    0,000;-347,00000
 324,55;  147,000;  337,000;    0,000;-190,00000
 324,56;   74,000;  -58,000;    0,000;132,00000
 324,58;  204,000;  195,000;    0,000; 9,00000
 324,60;   71,000;  442,000;    0,000;-371,00000
 324,62;  150,000;  504,000;    0,000;-354,00000
 324,64;   92,000;  149,000;    0,000;-57,00000
 324,66;  190,000;  311,000;    0,000;-121,00000
 324,67;   88,000;   30,000;    0,000;58,00000
 324,69;   17,000;  299,000;    0,000;-282,00000
 324,71;   21,000; -148,000;    0,000;169,00000
 324,73;  105,000;  -80,000;    0,000;185,00000
 324,75;  183,000;  342,000;    0,000;-159,00000
 324,77;  181,000;  495,000;    0,000;-314,00000
 324,79;   55,000;   50,000;    0,000; 5,00000
 324,80;  150,000;   72,000;    0,000;78,00000
 324,82;    9,000; -228,000;    0,000;237,00000
 324,84;   89,000;  273,000;    0,000;-184,00000
 324,86;   55,000; -162,000;    0,000;217,00000
 324,88;  149,000;   21,000;    0,000;128,00000
 324,90;  143,000;  152,000;    0,000;-9,00000
 324,91;   78,000;  100,000;    0,000;-22,00000
 324,93;  223,000;  257,000;    0,000;-34,00000
 324,95;  193,000; -103,000;    0,000;296,00000
 324,97;  125,000;  -85,000;    0,000;210,00000
 324,99;   81,000;   66,000;    0,000;15,00000
 325,01;  185,000; -104,000;    0,000;289,00000
 325,02;  295,000;  336,000;    0,000;-41,00000
 325,04;   89,000;  -39,000;    0,000;128,00000
 325,06;  142,000;  219,000;    0,000;-77,00000
 325,08;  139,000; -149,000;    0,000;288,00000
 325,10;  222,000;  -42,000;    0,000;264,00000
 325,12;  298,000; -220,000;    0,000;518,00000
 325,13;  362,000;  332,000;    0,000;30,00000
 325,15;  575,000;  -46,000;    0,000;621,00000
 325,17;  707,000;  117,000;    0,000;590,00000
 325,19; 1307,000;  447,000;    0,000;860,00000
 325,21; 1734,000;  316,000;    0,000;1418,00000
 325,23; 2101,000; -152,000;    0,000;2253,00000
 325,25; 1489,000; -139,000;    0,000;1628,00000
 325,26;  832,000;  243,000;    0,000;589,00000
 325,28;  359,000;  407,000;    0,000;-48,00000
 325,30;  255,000;  -26,000;    0,000;281,00000
 325,32;  198,000;  164,000;    0,000;34,00000
 325,34;  147,000;  335,000;    0,000;-188,00000
 325,36;  125,000;  215,000;    0,000;-90,00000
 325,37;   30,000;    6,000;    0,000;24,00000
 325,39;   57,000;   83,000;    0,000;-26,00000
 325,41;  145,000;  206,000;    0,000;-61,00000
 325,43;   29,000;   91,000;    0,000;-62,00000
 325,45;  177,000; -146,000;    0,000;323,00000
 325,47;  124,000;    5,000;    0,000;119,00000
 325,48;   73,000;   82,000;    0,000;-9,00000
 325,50;  204,000;  363,000;    0,000;-159,00000
 325,52;  133,000; -160,000;    0,000;293,00000
 325,54;   42,000; -121,000;    0,000;163,00000
 325,56;  -44,000;  -19,000;    0,000;-25,00000
 325,58;   82,000;  471,000;    0,000;-389,00000
 325,59;  120,000;  182,000;    0,000;-62,00000
 325,61;  206,000;  -84,000;    0,000;290,00000
 325,63;   63,000;  134,000;    0,000;-71,00000
 325,65;  117,000;  238,000;    0,000;-121,00000
 325,67;  175,000; -106,000;    0,000;281,00000
 325,69;  153,000;  -27,000;    0,000;180,00000
 325,70;   43,000; -156,000;    0,000;199,00000
 325,72;   85,000;  615,000;    0,000;-530,00000
 325,74;  177,000; -133,000;    0,000;310,00000
 325,76;   33,000;    7,000;    0,000;26,00000
 325,78;   -3,000;   -5,000;    0,000; 2,00000
 325,79;   61,000;  256,000;    0,000;-195,00000
 325,81;  165,000;   78,000;    0,000;87,00000
 325,83;  260,000;  231,000;    0,000;29,00000
 325,85;  213,000;   62,000;    0,000;151,00000
 325,87;  502,000;  405,000;    0,000;97,00000
 325,89;  837,000;  -78,000;    0,000;915,00000
 325,90; 1554,000;  283,000;    0,000;1271,00000
 325,92; 2856,000;  370,000;    0,000;2486,00000
 325,94; 5256,000;  771,000;    0,000;4485,00000
 325,96; 7953,000;   29,000;    0,000;7924,00000
 325,98;11760,000;  -35,000;    0,000;11795,00000
 326,00;16359,000;  442,000;    0,000;15917,00000
 326,01;21729,000;  625,000;    0,000;21104,00000
 326,03;34748,000;  246,000;    0,000;34502,00000
 326,05;54730,000;  222,000;    0,000;54508,00000
 326,07;64570,000;  399,000;    0,000;64171,00000
 326,09;64588,000;  833,000;    0,000;63755,00000
 326,11;50119,000;  283,000;    0,000;49836,00000
 326,12;22221,000;  183,000;    0,000;22038,00000
 326,14; 9665,000;  453,000;    0,000;9212,00000
 326,16; 5185,000;  697,000;    0,000;4488,00000
 326,18; 3185,000;  395,000;    0,000;2790,00000
 326,20; 1831,000;   99,000;    0,000;1732,00000
 326,21; 1037,000;  114,000;    0,000;923,00000
 326,23;  726,000;  212,000;    0,000;514,00000
 326,25;  565,000;  -33,000;    0,000;598,00000
 326,27;  600,000;  -55,000;    0,000;655,00000
 326,29;  520,000;  334,000;    0,000;186,00000
 326,31;  364,000;  243,000;    0,000;121,00000
 326,32;  419,000;   32,000;    0,000;387,00000
 326,34;  566,000;  279,000;    0,000;287,00000
 326,36;  418,000;  337,000;    0,000;81,00000
 326,38;  251,000;  333,000;    0,000;-82,00000
 326,40;  198,000; -394,000;    0,000;592,00000
 326,42;  271,000; -104,000;    0,000;375,00000
 326,43;  417,000;  284,000;    0,000;133,00000
 326,45;  266,000;  410,000;    0,000;-144,00000
 326,47;  188,000; -267,000;    0,000;455,00000
 326,49;  314,000;  409,000;    0,000;-95,00000
 326,51;  304,000;  432,000;    0,000;-128,00000
 326,52;  162,000;   52,000;    0,000;110,00000
 326,54;  213,000;  -73,000;    0,000;286,00000
 326,56;   81,000;  -34,000;    0,000;115,00000
 326,58;  313,000;  415,000;    0,000;-102,00000
 326,60;  229,000;  294,000;    0,000;-65,00000
 326,62;  145,000; -108,000;    0,000;253,00000
 326,63;  192,000;  -57,000;    0,000;249,00000
 326,65;  143,000;  171,000;    0,000;-28,00000
 326,67;  110,000;  337,000;    0,000;-227,00000
 326,69;  119,000; -189,000;    0,000;308,00000
 326,71;  150,000;  280,000;    0,000;-130,00000
 326,72;  122,000;  470,000;    0,000;-348,00000
 326,74;  249,000;  359,000;    0,000;-110,00000
 326,76;  183,000;  213,000;    0,000;-30,00000
 326,78;  231,000; -105,000;    0,000;336,00000
 326,80;  165,000;  222,000;    0,000;-57,00000
 326,82;  134,000;  273,000;    0,000;-139,00000
 326,83;  227,000; -346,000;    0,000;573,00000
 326,85;  239,000; -150,000;    0,000;389,00000
 326,87;   98,000;   52,000;    0,000;46,00000
 326,89;   60,000;  423,000;    0,000;-363,00000
 326,91;  171,000;    3,000;    0,000;168,00000
 326,92;  157,000;   97,000;    0,000;60,00000
 326,94;  238,000;   81,000;    0,000;157,00000
 326,96;  110,000;  168,000;    0,000;-58,00000
 326,98;  178,000;  -74,000;    0,000;252,00000
 327,00;  191,000;  141,000;    0,000;50,00000
 327,01;  193,000;  287,000;    0,000;-94,00000
 327,03;   26,000;  256,000;    0,000;-230,00000
 327,05;  135,000;  -12,000;    0,000;147,00000
 327,07;  112,000; -193,000;    0,000;305,00000
 327,09;   82,000;  483,000;    0,000;-401,00000
 327,11;   94,000;   23,000;    0,000;71,00000
 327,12;  105,000;  -56,000;    0,000;161,00000
 327,14;   13,000;   -8,000;    0,000;21,00000
 327,16;  148,000;  548,000;    0,000;-400,00000
 327,18;  134,000;  379,000;    0,000;-245,00000
 327,20;   65,000;  -18,000;    0,000;83,00000
 327,21;   74,000;  -76,000;    0,000;150,00000
 327,23;  177,000;  210,000;    0,000;-33,00000
 327,25;  229,000;  826,000;    0,000;-597,00000
 327,27;  161,000; -242,000;    0,000;403,00000
 327,29;  148,000;  -25,000;    0,000;173,00000
 327,30;  169,000;  356,000;    0,000;-187,00000
 327,32;  180,000;  311,000;    0,000;-131,00000
 327,34;   59,000;  397,000;    0,000;-338,00000
 327,36;  146,000;  335,000;    0,000;-189,00000
 327,38;  114,000;  112,000;    0,000; 2,00000
 327,39;  302,000;  612,000;    0,000;-310,00000
 327,41;  134,000;  174,000;    0,000;-40,00000
 327,43;  131,000;  212,000;    0,000;-81,00000
 327,45;   33,000;  438,000;    0,000;-405,00000
 327,47;  110,000;  284,000;    0,000;-174,00000
 327,49;   65,000;  258,000;    0,000;-193,00000
 327,50;  182,000; -155,000;    0,000;337,00000
 327,52;   52,000;  120,000;    0,000;-68,00000
 327,54;   56,000;  163,000;    0,000;-107,00000
 327,56;   91,000; -136,000;    0,000;227,00000
 327,58;   28,000; -239,000;    0,000;267,00000
 327,59;   13,000;  387,000;    0,000;-374,00000
 327,61;   89,000;   14,000;    0,000;75,00000
 327,63;  110,000;  426,000;    0,000;-316,00000
 327,65;    7,000;  182,000;    0,000;-175,00000
 327,67;  -14,000;  231,000;    0,000;-245,00000
 327,68;   50,000;  363,000;    0,000;-313,00000
 327,70;   29,000;  -73,000;    0,000;102,00000
 327,72;   30,000;   35,000;    0,000;-5,00000
 327,74;   86,000;  593,000;    0,000;-507,00000
 327,76;  128,000;  417,000;    0,000;-289,00000
 327,77;   31,000;  -88,000;    0,000;119,00000
 327,79;  142,000;  177,000;    0,000;-35,00000
 327,81;  -59,000;   50,000;    0,000;-109,00000
 327,83;   50,000;  282,000;    0,000;-232,00000
 327,85;  -18,000; -441,000;    0,000;423,00000
 327,86;  -13,000;  -32,000;    0,000;19,00000
 327,88;   63,000;  171,000;    0,000;-108,00000
 327,90;   32,000;   89,000;    0,000;-57,00000
 327,92;   75,000;  109,000;    0,000;-34,00000
 327,94;  -14,000;  -25,000;    0,000;11,00000
 327,95;  108,000;  178,000;    0,000;-70,00000
 327,97;   27,000;  391,000;    0,000;-364,00000
 327,99;   28,000; -433,000;    0,000;461,00000
 328,01;  133,000;  164,000;    0,000;-31,00000
 328,03;   55,000;  148,000;    0,000;-93,00000
 328,04;   57,000;  265,000;    0,000;-208,00000
 328,06;   18,000; -128,000;    0,000;146,00000
 328,08;  127,000;   99,000;    0,000;28,00000
 328,10;   35,000;  316,000;    0,000;-281,00000
 328,12;    3,000;   68,000;    0,000;-65,00000
 328,13;  -19,000;    9,000;    0,000;-28,00000
 328,15;  -26,000; -370,000;    0,000;344,00000
 328,17;  -84,000; -116,000;    0,000;32,00000
 328,19; -113,000;  -32,000;    0,000;-81,00000
 328,21;   52,000; -352,000;    0,000;404,00000
 328,22;  -10,000;  348,000;    0,000;-358,00000
 328,24;  -19,000;   25,000;    0,000;-44,00000
 328,26;  -55,000;  328,000;    0,000;-383,00000
 328,28;  120,000; -116,000;    0,000;236,00000
 328,30;   13,000;   -2,000;    0,000;15,00000
 328,31;  -43,000;   76,000;    0,000;-119,00000
 328,33;  130,000;  552,000;    0,000;-422,00000
 328,35;  -83,000; -524,000;    0,000;441,00000
 328,37;   31,000;   94,000;    0,000;-63,00000
 328,39; -113,000;  163,000;    0,000;-276,00000
 328,40;  110,000;  180,000;    0,000;-70,00000
 328,42;  -47,000; -220,000;    0,000;173,00000
 328,44;  -42,000; -234,000;    0,000;192,00000
 328,46;  -18,000;  365,000;    0,000;-383,00000
 328,47;  -97,000;  245,000;    0,000;-342,00000
 328,49;  103,000; -106,000;    0,000;209,00000
 328,51;  -58,000;  -22,000;    0,000;-36,00000
 328,53;  -21,000;   93,000;    0,000;-114,00000
 328,55;  -14,000;  148,000;    0,000;-162,00000
 328,56;   34,000; -303,000;    0,000;337,00000
 328,58;   85,000; -331,000;    0,000;416,00000
 328,60;  -49,000;   75,000;    0,000;-124,00000
 328,62;   41,000;  474,000;    0,000;-433,00000
 328,64;   63,000;  132,000;    0,000;-69,00000
 328,65;   82,000;   34,000;    0,000;48,00000
 328,67;   63,000;  377,000;    0,000;-314,00000
 328,69;   -1,000; -189,000;    0,000;188,00000
 328,71;   77,000;  -35,000;    0,000;112,00000
 328,73;    1,000;   38,000;    0,000;-37,00000
 328,74;   -7,000;   91,000;    0,000;-98,00000
 328,76;   77,000;  204,000;    0,000;-127,00000
 328,78;  -12,000;  -62,000;    0,000;50,00000
 328,80;   -4,000;   78,000;    0,000;-82,00000
 328,81;   23,000;  391,000;    0,000;-368,00000
 328,83;  -86,000;  185,000;    0,000;-271,00000
 328,85;  101,000; -140,000;    0,000;241,00000
 328,87;   21,000;   15,000;    0,000; 6,00000
 328,89;   32,000;    5,000;    0,000;27,00000
 328,90;  -85,000;  -81,000;    0,000;-4,00000
 328,92;  -39,000;   83,000;    0,000;-122,00000
 328,94;  -74,000;   64,000;    0,000;-138,00000
 328,96;  -39,000;   34,000;    0,000;-73,00000
 328,98;  129,000;  216,000;    0,000;-87,00000
 328,99;  116,000; -182,000;    0,000;298,00000
 329,01;    4,000;  -61,000;    0,000;65,00000
 329,03;  -73,000;  -22,000;    0,000;-51,00000
 329,05;   30,000;   41,000;    0,000;-11,00000
 329,06;  -53,000;  -10,000;    0,000;-43,00000
 329,08;  -37,000;  -51,000;    0,000;14,00000
 329,10;   34,000;   54,000;    0,000;-20,00000
 329,12;  -11,000;  215,000;    0,000;-226,00000
 329,14;  103,000; -281,000;    0,000;384,00000
 329,15;    3,000; -343,000;    0,000;346,00000
 329,17;   84,000;  321,000;    0,000;-237,00000
 329,19;  -10,000;   21,000;    0,000;-31,00000
 329,21;  -33,000;  -66,000;    0,000;33,00000
 329,23;   57,000;  689,000;    0,000;-632,00000
 329,24;  -40,000;  -21,000;    0,000;-19,00000
 329,26;   81,000;  332,000;    0,000;-251,00000
 329,28;  -13,000;  -93,000;    0,000;80,00000
 329,30;    5,000; -179,000;    0,000;184,00000
 329,31;    9,000;    3,000;    0,000; 6,00000
 329,33;   85,000;  377,000;    0,000;-292,00000
 329,35;   15,000; -174,000;    0,000;189,00000
 329,37;   -5,000;  -69,000;    0,000;64,00000
 329,39;   27,000;  411,000;    0,000;-384,00000
 329,40;   10,000;  347,000;    0,000;-337,00000
 329,42;   47,000; -113,000;    0,000;160,00000
 329,44;  133,000;  -87,000;    0,000;220,00000
 329,46;  -86,000;   30,000;    0,000;-116,00000
 329,47;   -5,000;  237,000;    0,000;-242,00000
 329,49;   25,000;    0,000;    0,000;25,00000
 329,51;  -35,000; -253,000;    0,000;218,00000
 329,53;   89,000;  153,000;    0,000;-64,00000
 329,55;   98,000;  381,000;    0,000;-283,00000
 329,56; -100,000; -407,000;    0,000;307,00000
 329,58;  -26,000; -334,000;    0,000;308,00000
 329,60;   49,000;  444,000;    0,000;-395,00000
 329,62;  -22,000;    4,000;    0,000;-26,00000
 329,63;   35,000; -211,000;    0,000;246,00000
 329,65;  -63,000; -200,000;    0,000;137,00000
 329,67;  -77,000;   61,000;    0,000;-138,00000
 329,69;   86,000;  290,000;    0,000;-204,00000
 329,71;  -67,000; -186,000;    0,000;119,00000
 329,72;   85,000; -182,000;    0,000;267,00000
 329,74;   11,000;  188,000;    0,000;-177,00000
 329,76;    9,000;   80,000;    0,000;-71,00000
 329,78;   75,000; -207,000;    0,000;282,00000
 329,79;  -58,000;   35,000;    0,000;-93,00000
 329,81;  -31,000;  539,000;    0,000;-570,00000
 329,83;   29,000;  294,000;    0,000;-265,00000
 329,85;   -3,000; -150,000;    0,000;147,00000
 329,87;  135,000;  142,000;    0,000;-7,00000
 329,88;  -23,000;  130,000;    0,000;-153,00000
 329,90;   64,000;  439,000;    0,000;-375,00000
 329,92;  131,000; -181,000;    0,000;312,00000
 329,94;   24,000; -137,000;    0,000;161,00000
 329,95;   20,000;   29,000;    0,000;-9,00000
 329,97;  -36,000;  271,000;    0,000;-307,00000
 329,99;   -2,000;  -10,000;    0,000; 8,00000
 330,01;   45,000;  -67,000;    0,000;112,00000
 330,02;   32,000;   54,000;    0,000;-22,00000
 330,04;  -81,000; -146,000;    0,000;65,00000
 330,06;    0,000; -164,000;    0,000;164,00000
 330,08;  -30,000; -297,000;    0,000;267,00000
 330,10;  -79,000; -281,000;    0,000;202,00000
 330,11;  137,000;  295,000;    0,000;-158,00000
 330,13;   32,000; -181,000;    0,000;213,00000
 330,15;  131,000;   52,000;    0,000;79,00000
 330,17;  -65,000; -354,000;    0,000;289,00000
 330,18;  -22,000;   29,000;    0,000;-51,00000
 330,20;  -75,000; -338,000;    0,000;263,00000
 330,22;  -51,000;  -85,000;    0,000;34,00000
 330,24;  -78,000;   10,000;    0,000;-88,00000
 330,25;   -7,000;  313,000;    0,000;-320,00000
 330,27;   33,000; -239,000;    0,000;272,00000
 330,29;  -30,000; -369,000;    0,000;339,00000
 330,31;   37,000;    4,000;    0,000;33,00000
 330,33;  102,000;  411,000;    0,000;-309,00000
 330,34;  -23,000; -379,000;    0,000;356,00000
 330,36;  -16,000; -240,000;    0,000;224,00000
 330,38;  -57,000;  286,000;    0,000;-343,00000
 330,40;   -6,000;  476,000;    0,000;-482,00000
 330,41;   73,000; -230,000;    0,000;303,00000
 330,43;  -22,000; -154,000;    0,000;132,00000
 330,45;  -48,000;   78,000;    0,000;-126,00000
 330,47;  -15,000;  127,000;    0,000;-142,00000
 330,48;   63,000; -244,000;    0,000;307,00000
 330,50;  -22,000;  137,000;    0,000;-159,00000
 330,52;   11,000;  -57,000;    0,000;68,00000
 330,54;   -3,000;  311,000;    0,000;-314,00000
 330,56;  123,000;   42,000;    0,000;81,00000
 330,57;  105,000; -114,000;    0,000;219,00000
 330,59;  147,000;  299,000;    0,000;-152,00000
 330,61;   69,000;  359,000;    0,000;-290,00000
 330,63;    1,000; -120,000;    0,000;121,00000
 330,64;   63,000;  -99,000;    0,000;162,00000
 330,66;   49,000;  309,000;    0,000;-260,00000
 330,68;   23,000;  -25,000;    0,000;48,00000
 330,70; -151,000; -434,000;    0,000;283,00000
 330,71;   48,000; -242,000;    0,000;290,00000
 330,73;   30,000;   57,000;    0,000;-27,00000
 330,75;  -10,000;  -18,000;    0,000; 8,00000
 330,77;    4,000; -290,000;    0,000;294,00000
 330,78;   -8,000; -283,000;    0,000;275,00000
 330,80;  -68,000;  -77,000;    0,000; 9,00000
 330,82;  -30,000;  194,000;    0,000;-224,00000
 330,84;  -17,000; -193,000;    0,000;176,00000
 330,85;   35,000;  155,000;    0,000;-120,00000
 330,87;   44,000;  151,000;    0,000;-107,00000
 330,89;  -71,000; -119,000;    0,000;48,00000
 330,91;  -41,000; -265,000;    0,000;224,00000
 330,92;   -7,000;  141,000;    0,000;-148,00000
 330,94;  -56,000;  -40,000;    0,000;-16,00000
 330,96;   41,000;  197,000;    0,000;-156,00000
 330,98;  103,000;  -41,000;    0,000;144,00000
 331,00;   37,000;  -49,000;    0,000;86,00000
 331,01;  -11,000;  135,000;    0,000;-146,00000
 331,03;  -41,000;  -58,000;    0,000;17,00000
 331,05;   61,000; -187,000;    0,000;248,00000
 331,07;  -15,000;  253,000;    0,000;-268,00000
 331,08;    3,000;  128,000;    0,000;-125,00000
 331,10;  -10,000; -169,000;    0,000;159,00000
 331,12;   -8,000; -135,000;    0,000;127,00000
 331,14;  -16,000; -130,000;    0,000;114,00000
 331,15;  -23,000;  277,000;    0,000;-300,00000
 331,17;   77,000;  436,000;    0,000;-359,00000
 331,19;   -9,000; -432,000;    0,000;423,00000
 331,21;  -51,000; -102,000;    0,000;51,00000
 331,22;  110,000;   41,000;    0,000;69,00000
 331,24;   44,000;  320,000;    0,000;-276,00000
 331,26;   15,000; -388,000;    0,000;403,00000
 331,28;  109,000; -202,000;    0,000;311,00000
 331,29;  -51,000; -101,000;    0,000;50,00000
 331,31;   78,000;  386,000;    0,000;-308,00000
 331,33;  -76,000; -282,000;    0,000;206,00000
 331,35; -131,000; -554,000;    0,000;423,00000
 331,36;  -25,000;  -27,000;    0,000; 2,00000
 331,38;  214,000;  349,000;    0,000;-135,00000
 331,40;  -11,000; -295,000;    0,000;284,00000
 331,42;  -73,000; -763,000;    0,000;690,00000
 331,43;  -51,000;   57,000;    0,000;-108,00000
 331,45;   55,000;  134,000;    0,000;-79,00000
 331,47;  -71,000; -481,000;    0,000;410,00000
 331,49;  -32,000; -166,000;    0,000;134,00000
 331,50;    0,000; -161,000;    0,000;161,00000
 331,52;   24,000;  372,000;    0,000;-348,00000
 331,54;  -66,000; -167,000;    0,000;101,00000
 331,56;   98,000; -167,000;    0,000;265,00000
 331,57;  -34,000;   43,000;    0,000;-77,00000
 331,59;   11,000;  315,000;    0,000;-304,00000
 331,61;   54,000; -104,000;    0,000;158,00000
 331,63;   28,000; -138,000;    0,000;166,00000
 331,64;   71,000;  315,000;    0,000;-244,00000
 331,66;  -40,000; -241,000;    0,000;201,00000
 331,68;  148,000;   90,000;    0,000;58,00000
 331,70;    2,000; -160,000;    0,000;162,00000
 331,71;    0,000;  233,000;    0,000;-233,00000
 331,73;   19,000;  -11,000;    0,000;30,00000
 331,75;   20,000; -198,000;    0,000;218,00000
 331,77;  -31,000; -171,000;    0,000;140,00000
 331,78;  -39,000;  102,000;    0,000;-141,00000
 331,80;   39,000;  364,000;    0,000;-325,00000
 331,82;    2,000; -125,000;    0,000;127,00000
 331,84;   49,000;  -57,000;    0,000;106,00000
 331,85;  -49,000;  -11,000;    0,000;-38,00000
 331,87;   14,000;  239,000;    0,000;-225,00000
 331,89;   30,000;  -12,000;    0,000;42,00000
 331,91;  -46,000; -109,000;    0,000;63,00000
 331,92;   67,000;  102,000;    0,000;-35,00000
 331,94;  -47,000;   62,000;    0,000;-109,00000
 331,96;   -9,000; -354,000;    0,000;345,00000
 331,98;   74,000; -118,000;    0,000;192,00000
 331,99;   61,000;  174,000;    0,000;-113,00000
 332,01;   21,000;  409,000;    0,000;-388,00000
 332,03;   -7,000;  427,000;    0,000;-434,00000
 332,04;    9,000;   29,000;    0,000;-20,00000
 332,06;  -55,000;  -59,000;    0,000; 4,00000
 332,08;   22,000;  131,000;    0,000;-109,00000
 332,10;  -51,000; -311,000;    0,000;260,00000
 332,11;   76,000;   13,000;    0,000;63,00000
 332,13;  -41,000;  367,000;    0,000;-408,00000
 332,15;   26,000;  140,000;    0,000;-114,00000
 332,17;  -93,000; -500,000;    0,000;407,00000
 332,18;  -32,000;   20,000;    0,000;-52,00000
 332,20;  -46,000;   97,000;    0,000;-143,00000
 332,22;  163,000;  539,000;    0,000;-376,00000
 332,24;  -75,000; -156,000;    0,000;81,00000
 332,25;   -5,000; -316,000;    0,000;311,00000
 332,27;  -74,000;  212,000;    0,000;-286,00000
 332,29;  -18,000;  -34,000;    0,000;16,00000
 332,31;   68,000;   30,000;    0,000;38,00000
 332,32;   32,000;  252,000;    0,000;-220,00000
 332,34;  -40,000;  134,000;    0,000;-174,00000
 332,36;   -6,000;   98,000;    0,000;-104,00000
 332,38;  -79,000; -115,000;    0,000;36,00000
 332,39;  -11,000;  -79,000;    0,000;68,00000
 332,41;  -26,000;  344,000;    0,000;-370,00000
 332,43;   51,000;  577,000;    0,000;-526,00000
 332,45;  -91,000; -369,000;    0,000;278,00000
 332,46;   40,000; -176,000;    0,000;216,00000
 332,48;    5,000;   67,000;    0,000;-62,00000
 332,50;   86,000;  144,000;    0,000;-58,00000
 332,51;  -16,000; -341,000;    0,000;325,00000
 332,53;  -24,000; -283,000;    0,000;259,00000
 332,55;  -10,000;    2,000;    0,000;-12,00000
 332,57;  -44,000;  -45,000;    0,000; 1,00000
 332,58;  -35,000; -320,000;    0,000;285,00000
 332,60;   47,000; -119,000;    0,000;166,00000
 332,62;  -84,000; -179,000;    0,000;95,00000
 332,64;  -66,000;  461,000;    0,000;-527,00000
 332,65;   36,000;  -40,000;    0,000;76,00000
 332,67;   40,000;  212,000;    0,000;-172,00000
 332,69;   18,000;  243,000;    0,000;-225,00000
 332,71;   53,000;  350,000;    0,000;-297,00000
 332,72;   -1,000; -387,000;    0,000;386,00000
 332,74;   29,000; -294,000;    0,000;323,00000
 332,76;  -20,000;  -80,000;    0,000;60,00000
 332,77;   38,000;  377,000;    0,000;-339,00000
 332,79;  -99,000; -481,000;    0,000;382,00000
 332,81; -103,000; -260,000;    0,000;157,00000
 332,83;  -71,000;  -23,000;    0,000;-48,00000
 332,84;   25,000;  274,000;    0,000;-249,00000
 332,86;  -85,000; -135,000;    0,000;50,00000
 332,88;  140,000; -125,000;    0,000;265,00000
 332,90;  -55,000;  -70,000;    0,000;15,00000
 332,91;  106,000;  650,000;    0,000;-544,00000
 332,93; -107,000; -509,000;    0,000;402,00000
 332,95;    7,000;  -76,000;    0,000;83,00000
 332,96; -116,000; -114,000;    0,000;-2,00000
 332,98;  106,000;  469,000;    0,000;-363,00000
 333,00;  -43,000;  -11,000;    0,000;-32,00000
 333,02;   12,000; -113,000;    0,000;125,00000
 333,03;  -82,000; -218,000;    0,000;136,00000
 333,05;   -9,000;  361,000;    0,000;-370,00000
 333,07;   77,000; -403,000;    0,000;480,00000
 333,09;  -42,000;  -16,000;    0,000;-26,00000
 333,10;  -54,000;  172,000;    0,000;-226,00000
 333,12;   40,000;  441,000;    0,000;-401,00000
 333,14;   56,000; -645,000;    0,000;701,00000
 333,15;   62,000; -192,000;    0,000;254,00000
 333,17; -119,000; -364,000;    0,000;245,00000
 333,19;   42,000;  218,000;    0,000;-176,00000
 333,21;   38,000; -337,000;    0,000;375,00000
 333,22;   39,000; -187,000;    0,000;226,00000
 333,24;   23,000;  196,000;    0,000;-173,00000
 333,26;   30,000;  706,000;    0,000;-676,00000
 333,28;   21,000;  -55,000;    0,000;76,00000
 333,29;  -82,000; -365,000;    0,000;283,00000
 333,31;  -20,000;  175,000;    0,000;-195,00000
 333,33;  -87,000;   12,000;    0,000;-99,00000
 333,34;   39,000; -207,000;    0,000;246,00000
 333,36;   60,000;  -14,000;    0,000;74,00000
 333,38;  -33,000; -104,000;    0,000;71,00000
 333,40;  -17,000;   55,000;    0,000;-72,00000
 333,41;   25,000; -436,000;    0,000;461,00000
 333,43;   25,000; -268,000;    0,000;293,00000
 333,45;  -68,000;  -91,000;    0,000;23,00000
 333,47;  -33,000;  132,000;    0,000;-165,00000
 333,48;  -92,000; -254,000;    0,000;162,00000
 333,50;   86,000;  -24,000;    0,000;110,00000
 333,52;   11,000; -102,000;    0,000;113,00000
 333,53;    3,000;  326,000;    0,000;-323,00000
 333,55;    8,000;   18,000;    0,000;-10,00000
 333,57;   45,000; -155,000;    0,000;200,00000
 333,59;   -3,000;  190,000;    0,000;-193,00000
 333,60;   25,000;  351,000;    0,000;-326,00000
 333,62;   12,000; -277,000;    0,000;289,00000
 333,64;  -25,000; -179,000;    0,000;154,00000
 333,65;  115,000;  155,000;    0,000;-40,00000
 333,67;   38,000;  321,000;    0,000;-283,00000
 333,69;  -21,000;   72,000;    0,000;-93,00000
 333,71;   -9,000; -139,000;    0,000;130,00000
 333,72; -104,000; -267,000;    0,000;163,00000
 333,74;  -25,000;  173,000;    0,000;-198,00000
 333,76;  -49,000; -347,000;    0,000;298,00000
 333,77;   95,000; -198,000;    0,000;293,00000
 333,79;  -36,000;  -65,000;    0,000;29,00000
 333,81;  -19,000;  450,000;    0,000;-469,00000
 333,83;    6,000; -259,000;    0,000;265,00000
 333,84;   25,000;   54,000;    0,000;-29,00000
 333,86;   28,000;   63,000;    0,000;-35,00000
 333,88;   13,000;  165,000;    0,000;-152,00000
 333,89;  -63,000; -393,000;    0,000;330,00000
 333,91;  -44,000; -254,000;    0,000;210,00000
 333,93;   11,000;  311,000;    0,000;-300,00000
 333,95;   81,000;  601,000;    0,000;-520,00000
 333,96;  -21,000; -355,000;    0,000;334,00000
 333,98;   54,000; -197,000;    0,000;251,00000
 334,00;   36,000;   41,000;    0,000;-5,00000
 334,01;   69,000;  533,000;    0,000;-464,00000
 334,03;   27,000;  -93,000;    0,000;120,00000
 334,05;  -51,000;  -14,000;    0,000;-37,00000
 334,07;   41,000;  186,000;    0,000;-145,00000
 334,08; -109,000;  294,000;    0,000;-403,00000
 334,10;  -45,000; -341,000;    0,000;296,00000
 334,12;  -61,000; -113,000;    0,000;52,00000
 334,13;  -91,000;  103,000;    0,000;-194,00000
 334,15;  -12,000;  187,000;    0,000;-199,00000
 334,17;   90,000; -123,000;    0,000;213,00000
 334,19;   53,000;    7,000;    0,000;46,00000
 334,20;  104,000;  314,000;    0,000;-210,00000
 334,22;  -18,000;  -63,000;    0,000;45,00000
 334,24;  -72,000; -244,000;    0,000;172,00000
 334,25;  -64,000; -192,000;    0,000;128,00000
 334,27;    9,000;  -20,000;    0,000;29,00000
 334,29;   27,000;  537,000;    0,000;-510,00000
 334,31;   79,000; -179,000;    0,000;258,00000
 334,32;   -9,000; -330,000;    0,000;321,00000
 334,34;  -74,000;  -50,000;    0,000;-24,00000
 334,36;  122,000;  432,000;    0,000;-310,00000
 334,37;  -28,000;  -21,000;    0,000;-7,00000
 334,39;    5,000;  288,000;    0,000;-283,00000
 334,41;   16,000;  263,000;    0,000;-247,00000
 334,43;   14,000;  335,000;    0,000;-321,00000
 334,44;  -15,000; -120,000;    0,000;105,00000
 334,46;  -49,000;   17,000;    0,000;-66,00000
 334,48;   -5,000;  400,000;    0,000;-405,00000
 334,49;   25,000;  155,000;    0,000;-130,00000
 334,51;  -57,000; -264,000;    0,000;207,00000
 334,53;  -68,000; -596,000;    0,000;528,00000
 334,54;   88,000;  253,000;    0,000;-165,00000
 334,56;  -25,000;   44,000;    0,000;-69,00000
 334,58;   17,000; -242,000;    0,000;259,00000
 334,60;   39,000; -184,000;    0,000;223,00000
 334,61; -116,000; -188,000;    0,000;72,00000
 334,63;  -37,000;  228,000;    0,000;-265,00000
 334,65;  -66,000;  -98,000;    0,000;32,00000
 334,66;   44,000;   55,000;    0,000;-11,00000
 334,68;   10,000; -148,000;    0,000;158,00000
 334,70; -131,000;  336,000;    0,000;-467,00000
 334,72;   64,000;   72,000;    0,000;-8,00000
 334,73;  -14,000; -287,000;    0,000;273,00000
 334,75;   70,000;  160,000;    0,000;-90,00000
 334,77;   16,000;  320,000;    0,000;-304,00000
 334,78;   23,000; -414,000;    0,000;437,00000
 334,80;   77,000;  -20,000;    0,000;97,00000
 334,82; -103,000;    9,000;    0,000;-112,00000
 334,83;  -72,000;  258,000;    0,000;-330,00000
 334,85;    0,000; -456,000;    0,000;456,00000
 334,87;   83,000; -263,000;    0,000;346,00000
 334,89;  -75,000;  -54,000;    0,000;-21,00000
 334,90;  108,000;  278,000;    0,000;-170,00000
 334,92;   52,000; -375,000;    0,000;427,00000
 334,94;    3,000; -138,000;    0,000;141,00000
 334,95;   48,000;  191,000;    0,000;-143,00000
 334,97;   16,000;  297,000;    0,000;-281,00000
 334,99;   54,000; -211,000;    0,000;265,00000
 335,00;  157,000; -104,000;    0,000;261,00000
 335,02;  -28,000;  251,000;    0,000;-279,00000
 335,04;   27,000;  289,000;    0,000;-262,00000
 335,06;   16,000; -495,000;    0,000;511,00000
 335,07;  -16,000; -324,000;    0,000;308,00000
 335,09;   41,000;  348,000;    0,000;-307,00000
 335,11;   11,000;  583,000;    0,000;-572,00000
 335,12;  122,000; -119,000;    0,000;241,00000
 335,14;  -37,000; -138,000;    0,000;101,00000
 335,16;  -20,000;  148,000;    0,000;-168,00000
 335,17;  -76,000; -286,000;    0,000;210,00000
 335,19;   68,000;  148,000;    0,000;-80,00000
 335,21;   76,000;  -58,000;    0,000;134,00000
 335,23;   72,000;  345,000;    0,000;-273,00000
 335,24; -111,000; -360,000;    0,000;249,00000
 335,26;   24,000; -531,000;    0,000;555,00000
 335,28;    7,000; -256,000;    0,000;263,00000
 335,29;   38,000;  -37,000;    0,000;75,00000
 335,31;   29,000;   42,000;    0,000;-13,00000
 335,33;   89,000; -348,000;    0,000;437,00000
 335,34;   39,000;   64,000;    0,000;-25,00000
 335,36;   48,000;   26,000;    0,000;22,00000
 335,38;   66,000;  503,000;    0,000;-437,00000
 335,39;   29,000;   25,000;    0,000; 4,00000
 335,41;  -10,000; -316,000;    0,000;306,00000
 335,43;   -4,000;  -76,000;    0,000;72,00000
 335,45;   91,000;  203,000;    0,000;-112,00000
 335,46;   -9,000; -358,000;    0,000;349,00000
 335,48;   24,000;  222,000;    0,000;-198,00000
 335,50;   -5,000;  -16,000;    0,000;11,00000
 335,51;  -75,000;  152,000;    0,000;-227,00000
 335,53;  -14,000; -492,000;    0,000;478,00000
 335,55;  -59,000;  -89,000;    0,000;30,00000
 335,56;    2,000;  131,000;    0,000;-129,00000
 335,58; -105,000;  208,000;    0,000;-313,00000
 335,60;   25,000; -482,000;    0,000;507,00000
 335,61;   94,000; -142,000;    0,000;236,00000
 335,63;   -7,000;  462,000;    0,000;-469,00000
 335,65;  -68,000;   41,000;    0,000;-109,00000
 335,67;  -22,000; -326,000;    0,000;304,00000
 335,68;  122,000;  -65,000;    0,000;187,00000
 335,70;  103,000;  449,000;    0,000;-346,00000
 335,72;   70,000;  431,000;    0,000;-361,00000
 335,73;   80,000;    1,000;    0,000;79,00000
 335,75;   28,000; -179,000;    0,000;207,00000
 335,77;   15,000;  224,000;    0,000;-209,00000
 335,78;   45,000;  436,000;    0,000;-391,00000
 335,80;    3,000; -468,000;    0,000;471,00000
 335,82;  -87,000; -274,000;    0,000;187,00000
 335,83;    0,000;  123,000;    0,000;-123,00000
 335,85;  131,000;  464,000;    0,000;-333,00000
 335,87;   57,000; -384,000;    0,000;441,00000
 335,88;   29,000; -200,000;    0,000;229,00000
 335,90;   15,000;  527,000;    0,000;-512,00000
 335,92;    5,000; -135,000;    0,000;140,00000
 335,93;   66,000; -334,000;    0,000;400,00000
 335,95;   46,000; -106,000;    0,000;152,00000
 335,97;  -83,000;  154,000;    0,000;-237,00000
 335,99;   59,000;  441,000;    0,000;-382,00000
 336,00;  -45,000; -373,000;    0,000;328,00000
 336,02;   62,000; -227,000;    0,000;289,00000
 336,04;  -23,000;  125,000;    0,000;-148,00000
 336,05;   76,000;  483,000;    0,000;-407,00000
 336,07;   22,000; -581,000;    0,000;603,00000
 336,09;  -21,000; -417,000;    0,000;396,00000
 336,10;   79,000;   89,000;    0,000;-10,00000
 336,12;   84,000;  228,000;    0,000;-144,00000
 336,14;  -92,000; -692,000;    0,000;600,00000
 336,15;  -26,000; -339,000;    0,000;313,00000
 336,17;  -82,000; -302,000;    0,000;220,00000
 336,19;   57,000;  480,000;    0,000;-423,00000
 336,20;   44,000; -266,000;    0,000;310,00000
 336,22;  -29,000;  -46,000;    0,000;17,00000
 336,24;  -15,000;  407,000;    0,000;-422,00000
 336,25;   14,000; -177,000;    0,000;191,00000
 336,27;   97,000; -334,000;    0,000;431,00000
 336,29;   31,000; -217,000;    0,000;248,00000
 336,30;  -30,000;  187,000;    0,000;-217,00000
 336,32;   18,000;   69,000;    0,000;-51,00000
 336,34;   69,000; -416,000;    0,000;485,00000
 336,36;  102,000; -183,000;    0,000;285,00000
 336,37;   60,000;    4,000;    0,000;56,00000
 336,39;  196,000;  341,000;    0,000;-145,00000
 336,41;    7,000; -325,000;    0,000;332,00000
 336,42;  -52,000; -356,000;    0,000;304,00000
 336,44;    5,000;  -91,000;    0,000;96,00000
 336,46;   81,000;  638,000;    0,000;-557,00000
 336,47;  -38,000; -463,000;    0,000;425,00000
 336,49;   57,000; -197,000;    0,000;254,00000
 336,51; -106,000;  208,000;    0,000;-314,00000
 336,52;   22,000;  268,000;    0,000;-246,00000
 336,54;  -53,000; -253,000;    0,000;200,00000
 336,56;  -10,000; -410,000;    0,000;400,00000
 336,57;  -25,000;  -72,000;    0,000;47,00000
 336,59;  -62,000;  102,000;    0,000;-164,00000
 336,61;  -31,000;  190,000;    0,000;-221,00000
 336,62;   81,000;  -69,000;    0,000;150,00000
 336,64;  -65,000;  -11,000;    0,000;-54,00000
 336,66;  -79,000;  312,000;    0,000;-391,00000
 336,67;  -19,000; -121,000;    0,000;102,00000
 336,69;   -8,000;  129,000;    0,000;-137,00000
 336,71;   19,000;  280,000;    0,000;-261,00000
 336,72;    3,000;   10,000;    0,000;-7,00000
 336,74;  107,000; -334,000;    0,000;441,00000
 336,76;   70,000; -137,000;    0,000;207,00000
 336,77;   40,000;  197,000;    0,000;-157,00000
 336,79;  -17,000;  290,000;    0,000;-307,00000
 336,81;    0,000; -393,000;    0,000;393,00000
 336,82;   -7,000; -207,000;    0,000;200,00000
 336,84;  -13,000;  112,000;    0,000;-125,00000
 336,86;   87,000;  478,000;    0,000;-391,00000
 336,87;   46,000; -517,000;    0,000;563,00000
 336,89;  -69,000; -323,000;    0,000;254,00000
 336,91;  -13,000;  -77,000;    0,000;64,00000
 336,92;  -33,000;  240,000;    0,000;-273,00000
 336,94;  112,000; -423,000;    0,000;535,00000
 336,96;   14,000; -263,000;    0,000;277,00000
 336,97;  -42,000;   57,000;    0,000;-99,00000
 336,99;  -11,000;  193,000;    0,000;-204,00000
 337,01;   52,000; -186,000;    0,000;238,00000
 337,02;  -29,000; -472,000;    0,000;443,00000
 337,04;  -27,000;   87,000;    0,000;-114,00000
 337,06;   -8,000;  408,000;    0,000;-416,00000
 337,07;  -33,000;  -43,000;    0,000;10,00000
 337,09;   29,000; -235,000;    0,000;264,00000
 337,11;  -14,000;  -52,000;    0,000;38,00000
 337,12;  -26,000;  345,000;    0,000;-371,00000
 337,14;   18,000; -402,000;    0,000;420,00000
 337,16;  -21,000; -454,000;    0,000;433,00000
 337,17;  -65,000; -129,000;    0,000;64,00000
 337,19;   18,000;  272,000;    0,000;-254,00000
 337,21;   -7,000; -365,000;    0,000;358,00000
 337,22;   28,000;  -59,000;    0,000;87,00000
 337,24;   42,000;  337,000;    0,000;-295,00000
 337,26;  -21,000;  271,000;    0,000;-292,00000
 337,27;  -47,000; -460,000;    0,000;413,00000
 337,29;   46,000; -129,000;    0,000;175,00000
 337,31;  -58,000;  -97,000;    0,000;39,00000
 337,32;  -34,000;  402,000;    0,000;-436,00000
 337,34;  -44,000; -376,000;    0,000;332,00000
 337,36;    2,000; -236,000;    0,000;238,00000
 337,37; -113,000;   84,000;    0,000;-197,00000
 337,39;  -10,000;  533,000;    0,000;-543,00000
 337,41;  -47,000; -331,000;    0,000;284,00000
 337,42;    7,000; -344,000;    0,000;351,00000
 337,44;  101,000;   40,000;    0,000;61,00000
 337,46;   79,000;  282,000;    0,000;-203,00000
 337,47;   -9,000; -479,000;    0,000;470,00000
 337,49;  -34,000; -268,000;    0,000;234,00000
 337,51;    6,000;  404,000;    0,000;-398,00000
 337,52;   54,000;  192,000;    0,000;-138,00000
 337,54;   80,000; -127,000;    0,000;207,00000
 337,56;  -65,000; -320,000;    0,000;255,00000
 337,57;   -5,000;  212,000;    0,000;-217,00000
 337,59;  -28,000;  270,000;    0,000;-298,00000
 337,61;  -35,000; -532,000;    0,000;497,00000
 337,62;    9,000;  -60,000;    0,000;69,00000
 337,64;   32,000;   10,000;    0,000;22,00000
 337,66;  -13,000;   50,000;    0,000;-63,00000
 337,67;   48,000; -329,000;    0,000;377,00000
 337,69;   24,000; -420,000;    0,000;444,00000
 337,71;  -13,000;  304,000;    0,000;-317,00000
 337,72; -109,000; -229,000;    0,000;120,00000
 337,74;   16,000; -281,000;    0,000;297,00000
 337,76;   13,000; -433,000;    0,000;446,00000
 337,77;   46,000;  176,000;    0,000;-130,00000
 337,79;   19,000;  -14,000;    0,000;33,00000
 337,81;  -50,000; -394,000;    0,000;344,00000
 337,82;  105,000; -121,000;    0,000;226,00000
 337,84;  -55,000;  156,000;    0,000;-211,00000
 337,86;   36,000;  650,000;    0,000;-614,00000
 337,87;   16,000; -101,000;    0,000;117,00000
 337,89;  -18,000; -215,000;    0,000;197,00000
 337,91;   35,000;  300,000;    0,000;-265,00000
 337,92;   50,000;  270,000;    0,000;-220,00000
 337,94;    8,000; -343,000;    0,000;351,00000
 337,95;   55,000; -377,000;    0,000;432,00000
 337,97;   51,000;  205,000;    0,000;-154,00000
 337,99;   93,000;  578,000;    0,000;-485,00000
 338,00;  -43,000; -595,000;    0,000;552,00000
 338,02;  -15,000;  -52,000;    0,000;37,00000
 338,04;  -20,000;  414,000;    0,000;-434,00000
 338,05;   51,000;  220,000;    0,000;-169,00000
 338,07;   33,000; -449,000;    0,000;482,00000
 338,09;   96,000; -120,000;    0,000;216,00000
 338,10;  -71,000;  190,000;    0,000;-261,00000
 338,12;   45,000;  237,000;    0,000;-192,00000
 338,14;   96,000; -364,000;    0,000;460,00000
 338,15;  -24,000; -227,000;    0,000;203,00000
 338,17;  158,000;  502,000;    0,000;-344,00000
 338,19;   60,000;  601,000;    0,000;-541,00000
 338,20;    3,000; -677,000;    0,000;680,00000
 338,22;  -63,000; -378,000;    0,000;315,00000
 338,24;   24,000;  399,000;    0,000;-375,00000
 338,25;   48,000;  927,000;    0,000;-879,00000
 338,27;   34,000; -321,000;    0,000;355,00000
 338,29;   37,000; -227,000;    0,000;264,00000
 338,30;  131,000;   71,000;    0,000;60,00000
 338,32;   31,000;  269,000;    0,000;-238,00000
 338,33;  -12,000; -174,000;    0,000;162,00000
 338,35;   94,000;  143,000;    0,000;-49,00000
 338,37;    7,000;  121,000;    0,000;-114,00000
 338,38;  -91,000; -251,000;    0,000;160,00000
 338,40;  -20,000; -367,000;    0,000;347,00000
 338,42;  105,000;  385,000;    0,000;-280,00000
 338,43;  -23,000;   66,000;    0,000;-89,00000
 338,45;    3,000; -204,000;    0,000;207,00000
 338,47;   11,000; -297,000;    0,000;308,00000
 338,48;  119,000;   14,000;    0,000;105,00000
 338,50;    5,000;   57,000;    0,000;-52,00000
 338,52;   58,000;  337,000;    0,000;-279,00000
 338,53;  -22,000; -280,000;    0,000;258,00000
 338,55;   31,000; -289,000;    0,000;320,00000
 338,57;   26,000;   73,000;    0,000;-47,00000
 338,58;  -20,000;  518,000;    0,000;-538,00000
 338,60;  145,000;  105,000;    0,000;40,00000
 338,61;  -36,000; -452,000;    0,000;416,00000
 338,63;  -98,000; -252,000;    0,000;154,00000
 338,65;   42,000;  306,000;    0,000;-264,00000
 338,66;  -34,000; -537,000;    0,000;503,00000
 338,68;   26,000; -206,000;    0,000;232,00000
 338,70; -100,000; -180,000;    0,000;80,00000
 338,71;   14,000;  344,000;    0,000;-330,00000
 338,73;  -59,000; -273,000;    0,000;214,00000
 338,75;   50,000;  185,000;    0,000;-135,00000
 338,76;  -33,000;  229,000;    0,000;-262,00000
 338,78;    5,000;  616,000;    0,000;-611,00000
 338,80;   -3,000; -664,000;    0,000;661,00000
 338,81;   84,000;  -99,000;    0,000;183,00000
 338,83;  -13,000;  -11,000;    0,000;-2,00000
 338,84;   33,000;  134,000;    0,000;-101,00000
 338,86;  -85,000; -296,000;    0,000;211,00000
 338,88;   86,000; -166,000;    0,000;252,00000
 338,89;  -56,000; -105,000;    0,000;49,00000
 338,91;  -87,000;   62,000;    0,000;-149,00000
 338,93;   -3,000; -469,000;    0,000;466,00000
 338,94;   -7,000; -344,000;    0,000;337,00000
 338,96;  -13,000;  105,000;    0,000;-118,00000
 338,98;  133,000;  509,000;    0,000;-376,00000
 338,99;  -13,000; -397,000;    0,000;384,00000
 339,01;   92,000;   43,000;    0,000;49,00000
 339,02;   51,000;  502,000;    0,000;-451,00000
 339,04;   91,000;  708,000;    0,000;-617,00000
 339,06;   63,000;   19,000;    0,000;44,00000
 339,07;  103,000;  -57,000;    0,000;160,00000
 339,09;  -30,000; -116,000;    0,000;86,00000
 339,11;  -15,000; -177,000;    0,000;162,00000
 339,12;   64,000; -200,000;    0,000;264,00000
 339,14;   39,000; -317,000;    0,000;356,00000
 339,16;   22,000;  310,000;    0,000;-288,00000
 339,17;  112,000;  540,000;    0,000;-428,00000
 339,19; -117,000; -392,000;    0,000;275,00000
 339,20;   15,000; -192,000;    0,000;207,00000
 339,22;   58,000;  214,000;    0,000;-156,00000
 339,24;   26,000;  107,000;    0,000;-81,00000
 339,25;   44,000; -280,000;    0,000;324,00000
 339,27;   73,000; -296,000;    0,000;369,00000
 339,29;  -46,000;  -28,000;    0,000;-18,00000
 339,30;  -26,000;  351,000;    0,000;-377,00000
 339,32;   63,000; -482,000;    0,000;545,00000
 339,34;   31,000;  -38,000;    0,000;69,00000
 339,35;   15,000;  322,000;    0,000;-307,00000
 339,37;   44,000;  482,000;    0,000;-438,00000
 339,38;  -37,000; -568,000;    0,000;531,00000
 339,40;   39,000; -153,000;    0,000;192,00000
 339,42;   62,000;    7,000;    0,000;55,00000
 339,43;   47,000;  287,000;    0,000;-240,00000
 339,45;   32,000; -411,000;    0,000;443,00000
 339,47;   65,000;  584,000;    0,000;-519,00000
 339,48;  -66,000;  148,000;    0,000;-214,00000
 339,50;   82,000;  413,000;    0,000;-331,00000
 339,51;  -22,000; -326,000;    0,000;304,00000
 339,53;   75,000; -118,000;    0,000;193,00000
 339,55;  101,000;  300,000;    0,000;-199,00000
 339,56;   38,000;  160,000;    0,000;-122,00000
 339,58;   67,000; -173,000;    0,000;240,00000
 339,60;   -6,000; -387,000;    0,000;381,00000
 339,61;   34,000;  -91,000;    0,000;125,00000
 339,63;   24,000;  -64,000;    0,000;88,00000
 339,64;  -67,000; -304,000;    0,000;237,00000
 339,66;    5,000; -271,000;    0,000;276,00000
 339,68;  -29,000;  -41,000;    0,000;12,00000
 339,69;   -6,000;  164,000;    0,000;-170,00000
 339,71;   12,000;  -90,000;    0,000;102,00000
 339,73;  144,000;  -46,000;    0,000;190,00000
 339,74;   29,000;  -57,000;    0,000;86,00000
 339,76;   -9,000;  299,000;    0,000;-308,00000
 339,77;  -69,000; -492,000;    0,000;423,00000
 339,79;   87,000; -179,000;    0,000;266,00000
 339,81;   34,000;  141,000;    0,000;-107,00000
 339,82;   24,000;  179,000;    0,000;-155,00000
 339,84;    8,000;   76,000;    0,000;-68,00000
 339,86;  133,000;   -4,000;    0,000;137,00000
 339,87;   82,000;  307,000;    0,000;-225,00000
 339,89;  126,000;  296,000;    0,000;-170,00000
 339,90;  -34,000; -150,000;    0,000;116,00000
 339,92;  -17,000;  -56,000;    0,000;39,00000
 339,94;   45,000;   16,000;    0,000;29,00000
 339,95;   -8,000;  183,000;    0,000;-191,00000
 339,97;  169,000;  -16,000;    0,000;185,00000
 339,99;  116,000;   27,000;    0,000;89,00000
 340,00;  -14,000;  126,000;    0,000;-140,00000
 340,02;  -48,000;  288,000;    0,000;-336,00000
 340,03;   10,000; -374,000;    0,000;384,00000
 340,05;   28,000; -366,000;    0,000;394,00000
 340,07;  -52,000;  196,000;    0,000;-248,00000
 340,08;   92,000;  169,000;    0,000;-77,00000
 340,10;   38,000; -414,000;    0,000;452,00000
 340,12;  -28,000; -293,000;    0,000;265,00000
 340,13;   46,000;  -73,000;    0,000;119,00000
 340,15;   53,000;  234,000;    0,000;-181,00000
 340,16;  228,000; -127,000;    0,000;355,00000
 340,18;  172,000; -111,000;    0,000;283,00000
 340,20;  458,000;  198,000;    0,000;260,00000
 340,21;  696,000;  289,000;    0,000;407,00000
 340,23;  979,000; -337,000;    0,000;1316,00000
 340,25; 1697,000;  -90,000;    0,000;1787,00000
 340,26; 2066,000;  387,000;    0,000;1679,00000
 340,28; 2494,000;  735,000;    0,000;1759,00000
 340,29; 3810,000; -167,000;    0,000;3977,00000
 340,31; 6209,000;  103,000;    0,000;6106,00000
 340,33;10387,000;  577,000;    0,000;9810,00000
 340,34;12782,000;  269,000;    0,000;12513,00000
 340,36;11851,000; -194,000;    0,000;12045,00000
 340,37; 6942,000; -130,000;    0,000;7072,00000
 340,39; 3475,000;   62,000;    0,000;3413,00000
 340,41; 1845,000;  362,000;    0,000;1483,00000
 340,42; 1005,000; -295,000;    0,000;1300,00000
 340,44;  517,000; -303,000;    0,000;820,00000
 340,46;  335,000;   37,000;    0,000;298,00000
 340,47;  191,000;  321,000;    0,000;-130,00000
 340,49;  219,000; -499,000;    0,000;718,00000
 340,50;  104,000; -110,000;    0,000;214,00000
 340,52;   29,000;  193,000;    0,000;-164,00000
 340,54;   29,000;   54,000;    0,000;-25,00000
 340,55;  102,000; -219,000;    0,000;321,00000
 340,57;  111,000; -152,000;    0,000;263,00000
 340,58;  118,000;  237,000;    0,000;-119,00000
 340,60;  176,000;  430,000;    0,000;-254,00000
 340,62;   95,000; -291,000;    0,000;386,00000
 340,63;  -10,000; -452,000;    0,000;442,00000
 340,65;  154,000;  438,000;    0,000;-284,00000
 340,66;  100,000;  112,000;    0,000;-12,00000
 340,68;   68,000; -251,000;    0,000;319,00000
 340,70;   27,000; -368,000;    0,000;395,00000
 340,71;  -25,000;  -98,000;    0,000;73,00000
 340,73;   54,000;   23,000;    0,000;31,00000
 340,75;  140,000; -404,000;    0,000;544,00000
 340,76;  145,000;  -82,000;    0,000;227,00000
 340,78;   46,000;   34,000;    0,000;12,00000
 340,79;   73,000;  317,000;    0,000;-244,00000
 340,81;   11,000; -242,000;    0,000;253,00000
 340,83;   81,000; -192,000;    0,000;273,00000
 340,84;    7,000;  -37,000;    0,000;44,00000
 340,86;   96,000;  483,000;    0,000;-387,00000
 340,87;   71,000; -421,000;    0,000;492,00000
 340,89;  -27,000; -353,000;    0,000;326,00000
 340,91;  -17,000;  282,000;    0,000;-299,00000
 340,92;   61,000; -183,000;    0,000;244,00000
 340,94;   34,000;   18,000;    0,000;16,00000
 340,95;   37,000; -245,000;    0,000;282,00000
 340,97;  -27,000;    0,000;    0,000;-27,00000
 340,99;  -53,000;  213,000;    0,000;-266,00000
 341,00;   31,000; -443,000;    0,000;474,00000
 341,02;   44,000; -399,000;    0,000;443,00000
 341,03;  -33,000;  -72,000;    0,000;39,00000
 341,05;    6,000;  372,000;    0,000;-366,00000
 341,07;  -42,000; -461,000;    0,000;419,00000
 341,08;  -23,000;  126,000;    0,000;-149,00000
 341,10;  122,000;  201,000;    0,000;-79,00000
 341,12;  -15,000;  534,000;    0,000;-549,00000
 341,13;   49,000; -582,000;    0,000;631,00000
 341,15;   34,000; -357,000;    0,000;391,00000
 341,16;  -53,000;  245,000;    0,000;-298,00000
 341,18;   36,000;  332,000;    0,000;-296,00000
 341,20;   71,000; -111,000;    0,000;182,00000
 341,21;   96,000; -129,000;    0,000;225,00000
 341,23;   63,000;  658,000;    0,000;-595,00000
 341,24;   37,000;  628,000;    0,000;-591,00000
 341,26;  -38,000; -454,000;    0,000;416,00000
 341,28;   37,000; -234,000;    0,000;271,00000
 341,29;  -70,000;  -42,000;    0,000;-28,00000
 341,31;   41,000;  311,000;    0,000;-270,00000
 341,32;    9,000; -442,000;    0,000;451,00000
 341,34;  -10,000; -291,000;    0,000;281,00000
 341,36;  -93,000; -267,000;    0,000;174,00000
 341,37;  210,000;  575,000;    0,000;-365,00000
 341,39;    1,000; -374,000;    0,000;375,00000
 341,40;   10,000; -343,000;    0,000;353,00000
 341,42;  -37,000;  125,000;    0,000;-162,00000
 341,44;   29,000;  276,000;    0,000;-247,00000
 341,45;   49,000; -448,000;    0,000;497,00000
 341,47;   40,000; -387,000;    0,000;427,00000
 341,48;    1,000;  109,000;    0,000;-108,00000
 341,50;   15,000;  402,000;    0,000;-387,00000
 341,52;  -69,000; -474,000;    0,000;405,00000
 341,53;  -74,000; -504,000;    0,000;430,00000
 341,55;   36,000;   85,000;    0,000;-49,00000
 341,56;   16,000;  266,000;    0,000;-250,00000
 341,58;   38,000; -241,000;    0,000;279,00000
 341,59;   73,000; -191,000;    0,000;264,00000
 341,61;  147,000;  618,000;    0,000;-471,00000
 341,63;    5,000;  418,000;    0,000;-413,00000
 341,64;  -66,000; -417,000;    0,000;351,00000
 341,66;   36,000;  -17,000;    0,000;53,00000
 341,67;    9,000;  321,000;    0,000;-312,00000
 341,69;  -25,000;  -63,000;    0,000;38,00000
 341,71;    7,000; -491,000;    0,000;498,00000
 341,72;   12,000; -381,000;    0,000;393,00000
 341,74;   94,000;  252,000;    0,000;-158,00000
 341,75;  -14,000;  100,000;    0,000;-114,00000
 341,77; -120,000; -639,000;    0,000;519,00000
 341,79;   43,000; -328,000;    0,000;371,00000
 341,80;   22,000;  374,000;    0,000;-352,00000
 341,82;  124,000;  592,000;    0,000;-468,00000
 341,83;  -39,000; -528,000;    0,000;489,00000
 341,85;   -3,000;   -4,000;    0,000; 1,00000
 341,87;   78,000;  220,000;    0,000;-142,00000
 341,88;   36,000;  509,000;    0,000;-473,00000
 341,90;   -6,000; -486,000;    0,000;480,00000
 341,91;  -76,000; -274,000;    0,000;198,00000
 341,93;  -43,000;  266,000;    0,000;-309,00000
 341,95;   30,000;  544,000;    0,000;-514,00000
 341,96;  186,000;  -87,000;    0,000;273,00000
 341,98;  -92,000; -383,000;    0,000;291,00000
 341,99;  -46,000;  -83,000;    0,000;37,00000
 342,01;  -48,000;  423,000;    0,000;-471,00000
 342,02;  -31,000; -166,000;    0,000;135,00000
 342,04;   14,000; -378,000;    0,000;392,00000
 342,06;   66,000;  349,000;    0,000;-283,00000
 342,07;  -50,000; -150,000;    0,000;100,00000
 342,09;  -12,000; -634,000;    0,000;622,00000
 342,10;   -6,000; -435,000;    0,000;429,00000
 342,12;  121,000;  401,000;    0,000;-280,00000
 342,14;  -42,000;  270,000;    0,000;-312,00000
 342,15;   21,000; -209,000;    0,000;230,00000
 342,17;   67,000; -279,000;    0,000;346,00000
 342,18;  -45,000;  177,000;    0,000;-222,00000
 342,20;   48,000;   92,000;    0,000;-44,00000
 342,22;   55,000; -407,000;    0,000;462,00000
 342,23;  -58,000; -257,000;    0,000;199,00000
 342,25;   66,000;  323,000;    0,000;-257,00000
 342,26;   -3,000;   -8,000;    0,000; 5,00000
 342,28;  120,000; -184,000;    0,000;304,00000
 342,29;   91,000; -520,000;    0,000;611,00000
 342,31;   31,000;  310,000;    0,000;-279,00000
 342,33;   86,000;  317,000;    0,000;-231,00000
 342,34;   57,000; -208,000;    0,000;265,00000
 342,36;   33,000; -538,000;    0,000;571,00000
 342,37;    4,000;  176,000;    0,000;-172,00000
 342,39;  -89,000;  -97,000;    0,000; 8,00000
 342,41;   47,000; -267,000;    0,000;314,00000
 342,42;   20,000; -302,000;    0,000;322,00000
 342,44;   63,000;   -7,000;    0,000;70,00000
 342,45;   79,000;  276,000;    0,000;-197,00000
 342,47;   58,000;  158,000;    0,000;-100,00000
 342,48;    5,000; -522,000;    0,000;527,00000
 342,50;  -26,000;  117,000;    0,000;-143,00000
 342,52;   -3,000;  340,000;    0,000;-343,00000
 342,53;   32,000; -462,000;    0,000;494,00000
 342,55;   70,000; -325,000;    0,000;395,00000
 342,56;   -7,000;    7,000;    0,000;-14,00000
 342,58;  -90,000;  -98,000;    0,000; 8,00000
 342,60;  -21,000;  142,000;    0,000;-163,00000
 342,61;    1,000; -487,000;    0,000;488,00000
 342,63;   -1,000;  116,000;    0,000;-117,00000
 342,64;  138,000;  667,000;    0,000;-529,00000
 342,66;   95,000; -161,000;    0,000;256,00000
 342,67;   49,000; -205,000;    0,000;254,00000
 342,69;   47,000;  301,000;    0,000;-254,00000
 342,71;   77,000;  438,000;    0,000;-361,00000
 342,72;   35,000; -646,000;    0,000;681,00000
 342,74;  -51,000; -331,000;    0,000;280,00000
 342,75;  -41,000;  278,000;    0,000;-319,00000
 342,77;   19,000;   52,000;    0,000;-33,00000
 342,78;    5,000; -511,000;    0,000;516,00000
 342,80;   19,000; -379,000;    0,000;398,00000
 342,82; -113,000;  -95,000;    0,000;-18,00000
 342,83;  -63,000;  219,000;    0,000;-282,00000
 342,85;   32,000; -388,000;    0,000;420,00000
 342,86;  -44,000; -620,000;    0,000;576,00000
 342,88;  -16,000;  309,000;    0,000;-325,00000
 342,89;   63,000;  330,000;    0,000;-267,00000
 342,91;   33,000; -386,000;    0,000;419,00000
 342,93;   49,000; -378,000;    0,000;427,00000
 342,94;  -28,000;  350,000;    0,000;-378,00000
 342,96;   23,000;  254,000;    0,000;-231,00000
 342,97;  -20,000; -497,000;    0,000;477,00000
 342,99;  110,000; -265,000;    0,000;375,00000
 343,01;   79,000;  141,000;    0,000;-62,00000
 343,02;  -39,000;  -79,000;    0,000;40,00000
 343,04;   60,000; -467,000;    0,000;527,00000
 343,05;  -63,000; -599,000;    0,000;536,00000
 343,07;   35,000;  482,000;    0,000;-447,00000
 343,08;   77,000;  484,000;    0,000;-407,00000
 343,10;  123,000; -427,000;    0,000;550,00000
 343,12;  -41,000;  -80,000;    0,000;39,00000
 343,13;    5,000;  219,000;    0,000;-214,00000
 343,15;  119,000;  485,000;    0,000;-366,00000
 343,16;  -43,000;  296,000;    0,000;-339,00000
 343,18;  123,000; -242,000;    0,000;365,00000
 343,19;  -22,000;  270,000;    0,000;-292,00000
 343,21;  -48,000;  385,000;    0,000;-433,00000
 343,22;   52,000; -391,000;    0,000;443,00000
 343,24;  -16,000; -512,000;    0,000;496,00000
 343,26;   96,000;  419,000;    0,000;-323,00000
 343,27;  106,000;  223,000;    0,000;-117,00000
 343,29;  -30,000; -427,000;    0,000;397,00000
 343,30;   97,000; -214,000;    0,000;311,00000
 343,32;  -36,000;  152,000;    0,000;-188,00000
 343,33;  -47,000;   99,000;    0,000;-146,00000
 343,35;    1,000; -602,000;    0,000;603,00000
 343,37;   54,000; -438,000;    0,000;492,00000
 343,38;  -13,000;  261,000;    0,000;-274,00000
 343,40;  105,000;  396,000;    0,000;-291,00000
 343,41;  -41,000; -412,000;    0,000;371,00000
 343,43;  -82,000; -523,000;    0,000;441,00000
 343,44;  107,000;  555,000;    0,000;-448,00000
 343,46;    3,000;  108,000;    0,000;-105,00000
 343,48;  -47,000; -634,000;    0,000;587,00000
 343,49;  107,000; -312,000;    0,000;419,00000
 343,51;   35,000;  245,000;    0,000;-210,00000
 343,52;   13,000;  129,000;    0,000;-116,00000
 343,54;  -16,000;  -52,000;    0,000;36,00000
 343,55;  -66,000; -505,000;    0,000;439,00000
 343,57;   46,000;  274,000;    0,000;-228,00000
 343,59;   73,000;  164,000;    0,000;-91,00000
 343,60;   21,000; -263,000;    0,000;284,00000
 343,62;  -99,000; -482,000;    0,000;383,00000
 343,63;    3,000;  180,000;    0,000;-177,00000
 343,65;  -38,000;  109,000;    0,000;-147,00000
 343,66;   27,000; -576,000;    0,000;603,00000
 343,68;   44,000; -142,000;    0,000;186,00000
 343,69;  -15,000;   21,000;    0,000;-36,00000
 343,71;  149,000;  544,000;    0,000;-395,00000
 343,73;    3,000; -287,000;    0,000;290,00000
 343,74;  -85,000; -536,000;    0,000;451,00000
 343,76;   16,000;  491,000;    0,000;-475,00000
 343,77;   42,000;  428,000;    0,000;-386,00000
 343,79;  -21,000; -226,000;    0,000;205,00000
 343,80;   19,000; -166,000;    0,000;185,00000
 343,82;   70,000;  196,000;    0,000;-126,00000
 343,83;  -69,000;  -69,000;    0,000; 0,00000
 343,85;   29,000; -592,000;    0,000;621,00000
 343,87;   23,000; -335,000;    0,000;358,00000
 343,88;  -90,000;  109,000;    0,000;-199,00000
 343,90;  -18,000; -102,000;    0,000;84,00000
 343,91;   66,000; -512,000;    0,000;578,00000
 343,93;  -10,000; -490,000;    0,000;480,00000
 343,94;   -2,000;  129,000;    0,000;-131,00000
 343,96;  -40,000; -130,000;    0,000;90,00000
 343,98;  131,000; -467,000;    0,000;598,00000
 343,99;  144,000; -292,000;    0,000;436,00000
 344,01;  -21,000;  -85,000;    0,000;64,00000
 344,02;  -52,000;  200,000;    0,000;-252,00000
 344,04;  -10,000;  -29,000;    0,000;19,00000
 344,05;   17,000; -186,000;    0,000;203,00000
 344,07;  -62,000;   22,000;    0,000;-84,00000
 344,08;   13,000;    5,000;    0,000; 8,00000
 344,10;   12,000; -314,000;    0,000;326,00000
 344,12;   14,000; -371,000;    0,000;385,00000
 344,13;   41,000;   67,000;    0,000;-26,00000
 344,15;   28,000;  385,000;    0,000;-357,00000
 344,16;  -99,000; -399,000;    0,000;300,00000
 344,18;   31,000;  -97,000;    0,000;128,00000
 344,19;  -21,000;  175,000;    0,000;-196,00000
 344,21;  -30,000;  259,000;    0,000;-289,00000
 344,22;  -12,000; -259,000;    0,000;247,00000
 344,24;   32,000; -360,000;    0,000;392,00000
 344,25;   32,000;  546,000;    0,000;-514,00000
 344,27;   39,000;  395,000;    0,000;-356,00000
 344,29;  -11,000; -482,000;    0,000;471,00000
 344,30;   -7,000; -356,000;    0,000;349,00000
 344,32;    0,000;  354,000;    0,000;-354,00000
 344,33;   33,000;  585,000;    0,000;-552,00000
 344,35;  -90,000; -672,000;    0,000;582,00000
 344,36;   80,000; -159,000;    0,000;239,00000
 344,38;   55,000;  314,000;    0,000;-259,00000
 344,39;   25,000;  397,000;    0,000;-372,00000
 344,41;   19,000; -309,000;    0,000;328,00000
 344,43;   80,000; -118,000;    0,000;198,00000
 344,44;  -32,000;  -91,000;    0,000;59,00000
 344,46;   19,000;  369,000;    0,000;-350,00000
 344,47;   93,000; -463,000;    0,000;556,00000
 344,49;  -49,000; -283,000;    0,000;234,00000
 344,50;   34,000;  315,000;    0,000;-281,00000
 344,52;   93,000;  384,000;    0,000;-291,00000
 344,53;   -2,000; -503,000;    0,000;501,00000
 344,55;    4,000; -318,000;    0,000;322,00000
 344,56;  -58,000;   49,000;    0,000;-107,00000
 344,58;  -32,000;  451,000;    0,000;-483,00000
 344,60;   91,000; -506,000;    0,000;597,00000
 344,61;  -24,000; -346,000;    0,000;322,00000
 344,63;    4,000;  347,000;    0,000;-343,00000
 344,64;   -6,000;  268,000;    0,000;-274,00000
 344,66;   38,000; -478,000;    0,000;516,00000
 344,67;  -73,000; -631,000;    0,000;558,00000
 344,69;   50,000;  265,000;    0,000;-215,00000
 344,70;   91,000;  265,000;    0,000;-174,00000
 344,72;   35,000; -408,000;    0,000;443,00000
 344,73;    0,000; -277,000;    0,000;277,00000
 344,75;  -22,000;  265,000;    0,000;-287,00000
 344,77;  -32,000;  186,000;    0,000;-218,00000
 344,78;    8,000; -281,000;    0,000;289,00000
 344,80;  -33,000; -462,000;    0,000;429,00000
 344,81;    4,000;  226,000;    0,000;-222,00000
 344,83;   -8,000;  248,000;    0,000;-256,00000
 344,84;    4,000; -587,000;    0,000;591,00000
 344,86;   -1,000; -171,000;    0,000;170,00000
 344,87;  -24,000;  595,000;    0,000;-619,00000
 344,89;   37,000;  269,000;    0,000;-232,00000
 344,90;   42,000; -312,000;    0,000;354,00000
 344,92;  -15,000; -190,000;    0,000;175,00000
 344,93;  -30,000;  -39,000;    0,000; 9,00000
 344,95;  133,000;  511,000;    0,000;-378,00000
 344,97;   85,000; -493,000;    0,000;578,00000
 344,98;   -2,000; -536,000;    0,000;534,00000
 345,00;  -41,000;  193,000;    0,000;-234,00000
 345,01;  -12,000;  146,000;    0,000;-158,00000
 345,03;   45,000; -572,000;    0,000;617,00000
 345,04;  106,000;  -23,000;    0,000;129,00000
 345,06;   69,000;  250,000;    0,000;-181,00000
 345,07;  -23,000;  -70,000;    0,000;47,00000
 345,09;   24,000; -281,000;    0,000;305,00000
 345,10;   12,000; -360,000;    0,000;372,00000
 345,12;    5,000;    7,000;    0,000;-2,00000
 345,13;  194,000;  771,000;    0,000;-577,00000
 345,15;   21,000; -339,000;    0,000;360,00000
 345,17;   67,000; -493,000;    0,000;560,00000
 345,18;  -26,000;  158,000;    0,000;-184,00000
 345,20;   12,000;   57,000;    0,000;-45,00000
 345,21;  -67,000; -686,000;    0,000;619,00000
 345,23;   86,000; -484,000;    0,000;570,00000
 345,24;  -40,000; -162,000;    0,000;122,00000
 345,26;  -62,000;   29,000;    0,000;-91,00000
 345,27;  -82,000; -309,000;    0,000;227,00000
 345,29;   28,000; -151,000;    0,000;179,00000
 345,30;   45,000;  112,000;    0,000;-67,00000
 345,32;  191,000;  585,000;    0,000;-394,00000
 345,33;  -33,000; -435,000;    0,000;402,00000
 345,35;   10,000; -451,000;    0,000;461,00000
 345,37;   22,000;  197,000;    0,000;-175,00000
 345,38;   42,000;  356,000;    0,000;-314,00000
 345,40;   56,000; -499,000;    0,000;555,00000
 345,41;   35,000; -196,000;    0,000;231,00000
 345,43;   35,000;  393,000;    0,000;-358,00000
 345,44;   18,000;  164,000;    0,000;-146,00000
 345,46;  -83,000; -696,000;    0,000;613,00000
 345,47;   85,000; -424,000;    0,000;509,00000
 345,49;  -84,000;   44,000;    0,000;-128,00000
 345,50;  105,000;  748,000;    0,000;-643,00000
 345,52;   -3,000; -366,000;    0,000;363,00000
 345,53;  -62,000; -364,000;    0,000;302,00000
 345,55;   55,000;  110,000;    0,000;-55,00000
 345,56;   -5,000;  368,000;    0,000;-373,00000
 345,58;   25,000; -292,000;    0,000;317,00000
 345,59;   40,000;  -91,000;    0,000;131,00000
 345,61;   65,000;  274,000;    0,000;-209,00000
 345,63;   71,000;  293,000;    0,000;-222,00000
 345,64;   18,000; -586,000;    0,000;604,00000
 345,66;   50,000; -178,000;    0,000;228,00000
 345,67;   58,000;  531,000;    0,000;-473,00000
 345,69;  100,000;  423,000;    0,000;-323,00000
 345,70;   60,000; -461,000;    0,000;521,00000
 345,72;   78,000; -327,000;    0,000;405,00000
 345,73;   43,000;  359,000;    0,000;-316,00000
 345,75;  146,000;  305,000;    0,000;-159,00000
 345,76;  -20,000; -464,000;    0,000;444,00000
 345,78;   -7,000; -271,000;    0,000;264,00000
 345,79;   19,000;  333,000;    0,000;-314,00000
 345,81;   21,000;  133,000;    0,000;-112,00000
 345,82;   15,000; -335,000;    0,000;350,00000
 345,84;   35,000; -422,000;    0,000;457,00000
 345,85;  -15,000;  127,000;    0,000;-142,00000
 345,87;   25,000;  406,000;    0,000;-381,00000
 345,88;   43,000; -353,000;    0,000;396,00000
 345,90;   21,000; -332,000;    0,000;353,00000
 345,92;   10,000;   45,000;    0,000;-35,00000
 345,93;  136,000;  529,000;    0,000;-393,00000
 345,95;  -13,000; -101,000;    0,000;88,00000
 345,96;  -51,000; -417,000;    0,000;366,00000
 345,98;  107,000;  380,000;    0,000;-273,00000
 345,99;   40,000;  238,000;    0,000;-198,00000
 346,01;   72,000; -127,000;    0,000;199,00000
 346,02;    9,000; -501,000;    0,000;510,00000
 346,04;   -9,000;  176,000;    0,000;-185,00000
 346,05;  -25,000;  -22,000;    0,000;-3,00000
 346,07;  -26,000; -501,000;    0,000;475,00000
 346,08;   89,000; -402,000;    0,000;491,00000
 346,10;   27,000;  126,000;    0,000;-99,00000
 346,11;   17,000;  314,000;    0,000;-297,00000
 346,13;    8,000; -133,000;    0,000;141,00000
 346,14;   42,000; -189,000;    0,000;231,00000
 346,16;   55,000;  283,000;    0,000;-228,00000
 346,17;    7,000;  403,000;    0,000;-396,00000
 346,19;   21,000; -675,000;    0,000;696,00000
 346,20;    1,000; -445,000;    0,000;446,00000
 346,22;  -59,000;  140,000;    0,000;-199,00000
 346,23;   15,000;  183,000;    0,000;-168,00000
 346,25;  -50,000; -362,000;    0,000;312,00000
 346,26;   40,000; -334,000;    0,000;374,00000
 346,28;   39,000;  314,000;    0,000;-275,00000
 346,30;  544,000;  830,000;    0,000;-286,00000
 346,31;  -22,000; -582,000;    0,000;560,00000
 346,33;  -12,000; -411,000;    0,000;399,00000
 346,34;   92,000;  293,000;    0,000;-201,00000
 346,36;  -15,000;  209,000;    0,000;-224,00000
 346,37;   82,000; -669,000;    0,000;751,00000
 346,39;  116,000; -229,000;    0,000;345,00000
 346,40;  146,000;  119,000;    0,000;27,00000
 346,42;  365,000;  652,000;    0,000;-287,00000
 346,43;  325,000; -455,000;    0,000;780,00000
 346,45;  660,000;  -55,000;    0,000;715,00000
 346,46;  836,000;   28,000;    0,000;808,00000
 346,48; 1406,000;  463,000;    0,000;943,00000
 346,49; 1899,000; -448,000;    0,000;2347,00000
 346,51; 2252,000; -396,000;    0,000;2648,00000
 346,52; 2690,000;  105,000;    0,000;2585,00000
 346,54; 3453,000;  480,000;    0,000;2973,00000
 346,55; 5671,000; -260,000;    0,000;5931,00000
 346,57; 8929,000; -154,000;    0,000;9083,00000
 346,58;14962,000;  838,000;    0,000;14124,00000
 346,60;17006,000;  224,000;    0,000;16782,00000
 346,61;16005,000; -274,000;    0,000;16279,00000
 346,63;10413,000; -390,000;    0,000;10803,00000
 346,64; 6627,000;  645,000;    0,000;5982,00000
 346,66; 4588,000;  141,000;    0,000;4447,00000
 346,67; 3825,000; -458,000;    0,000;4283,00000
 346,69; 4000,000; -167,000;    0,000;4167,00000
 346,70; 5807,000;  537,000;    0,000;5270,00000
 346,72; 8855,000;  494,000;    0,000;8361,00000
 346,73;13042,000;  -39,000;    0,000;13081,00000
 346,75;13604,000; -101,000;    0,000;13705,00000
 346,76;10656,000;  185,000;    0,000;10471,00000
 346,78; 5873,000;  -42,000;    0,000;5915,00000
 346,79; 3144,000; -247,000;    0,000;3391,00000
 346,81; 1804,000; -414,000;    0,000;2218,00000
 346,82;  998,000;  362,000;    0,000;636,00000
 346,84;  663,000;  390,000;    0,000;273,00000
 346,85;  413,000; -339,000;    0,000;752,00000
 346,87;  461,000; -218,000;    0,000;679,00000
 346,88;  206,000;  161,000;    0,000;45,00000
 346,90;  288,000;  467,000;    0,000;-179,00000
 346,91;  242,000;  -21,000;    0,000;263,00000
 346,93;  234,000;  -50,000;    0,000;284,00000
 346,94;   57,000;   85,000;    0,000;-28,00000
 346,96;  128,000;  402,000;    0,000;-274,00000
 346,97;  148,000; -224,000;    0,000;372,00000
 346,99;  162,000; -435,000;    0,000;597,00000
 347,00;  -43,000; -707,000;    0,000;664,00000
 347,02;  120,000;  364,000;    0,000;-244,00000
 347,04;  142,000; -533,000;    0,000;675,00000
 347,05;  149,000;  -42,000;    0,000;191,00000
 347,07;  107,000;  299,000;    0,000;-192,00000
 347,08;   48,000;  138,000;    0,000;-90,00000
 347,10;   62,000; -154,000;    0,000;216,00000
 347,11;   60,000; -141,000;    0,000;201,00000
 347,13;  -55,000; -163,000;    0,000;108,00000
 347,14;   99,000;  671,000;    0,000;-572,00000
 347,16;   46,000; -171,000;    0,000;217,00000
 347,17;   16,000; -345,000;    0,000;361,00000
 347,19;   72,000;  254,000;    0,000;-182,00000
 347,20;   60,000;   62,000;    0,000;-2,00000
 347,22;  136,000; -350,000;    0,000;486,00000
 347,23;   -6,000; -258,000;    0,000;252,00000
 347,25;   90,000;   68,000;    0,000;22,00000
 347,26;  123,000;  387,000;    0,000;-264,00000
 347,28;    8,000; -503,000;    0,000;511,00000
 347,29;   13,000; -191,000;    0,000;204,00000
 347,31;  107,000;  179,000;    0,000;-72,00000
 347,32;   76,000;  464,000;    0,000;-388,00000
 347,34;   12,000;  -82,000;    0,000;94,00000
 347,35;  131,000;  -38,000;    0,000;169,00000
 347,37;   29,000;   17,000;    0,000;12,00000
 347,38;  103,000;  175,000;    0,000;-72,00000
 347,40;   34,000; -334,000;    0,000;368,00000
 347,41;  105,000; -427,000;    0,000;532,00000
 347,42;  130,000;  477,000;    0,000;-347,00000
 347,44;   44,000;  264,000;    0,000;-220,00000
 347,45;   96,000; -182,000;    0,000;278,00000
 347,47;   58,000;  -49,000;    0,000;107,00000
 347,48;    3,000;  257,000;    0,000;-254,00000
 347,50;   50,000;  526,000;    0,000;-476,00000
 347,51; -130,000; -546,000;    0,000;416,00000
 347,53;   25,000; -297,000;    0,000;322,00000
 347,54;   17,000;  430,000;    0,000;-413,00000
 347,56;    1,000;  298,000;    0,000;-297,00000
 347,57;  -17,000; -293,000;    0,000;276,00000
 347,59;   64,000; -225,000;    0,000;289,00000
 347,60;   11,000;  -18,000;    0,000;29,00000
 347,62;  -48,000; -217,000;    0,000;169,00000
 347,63;  -35,000; -425,000;    0,000;390,00000
 347,65;  -21,000; -219,000;    0,000;198,00000
 347,66;   28,000; -164,000;    0,000;192,00000
 347,68;   -1,000;  505,000;    0,000;-506,00000
 347,69;  -40,000; -484,000;    0,000;444,00000
 347,71;   44,000; -309,000;    0,000;353,00000
 347,72;   32,000;  381,000;    0,000;-349,00000
 347,74;   47,000;  216,000;    0,000;-169,00000
 347,75;   20,000; -487,000;    0,000;507,00000
 347,77;   21,000;   56,000;    0,000;-35,00000
 347,78;  -68,000;  -68,000;    0,000; 0,00000
 347,80;    7,000;  -14,000;    0,000;21,00000
 347,81;  -42,000; -260,000;    0,000;218,00000
 347,83;   89,000; -214,000;    0,000;303,00000
 347,84;  -15,000;  290,000;    0,000;-305,00000
 347,86;  145,000;  890,000;    0,000;-745,00000
 347,87;   10,000; -227,000;    0,000;237,00000
 347,89;   28,000; -238,000;    0,000;266,00000
 347,90;   55,000;  235,000;    0,000;-180,00000
 347,92;   66,000;  463,000;    0,000;-397,00000
 347,93;    7,000; -319,000;    0,000;326,00000
 347,95;   88,000; -172,000;    0,000;260,00000
 347,96; -136,000;  187,000;    0,000;-323,00000
 347,98;   35,000;  201,000;    0,000;-166,00000
 347,99;   41,000; -512,000;    0,000;553,00000
 348,01;  -27,000; -410,000;    0,000;383,00000
 348,02;  -14,000;  118,000;    0,000;-132,00000
 348,04;   95,000;  693,000;    0,000;-598,00000
 348,05;   30,000; -473,000;    0,000;503,00000
 348,07;   20,000; -238,000;    0,000;258,00000
 348,08;   61,000;  429,000;    0,000;-368,00000
 348,10;  -50,000;  -27,000;    0,000;-23,00000
 348,11;  -10,000; -499,000;    0,000;489,00000
 348,13;    8,000; -289,000;    0,000;297,00000
 348,14;   38,000;   61,000;    0,000;-23,00000
 348,16;   -2,000;  504,000;    0,000;-506,00000
 348,17;    3,000; -335,000;    0,000;338,00000
 348,18;   32,000;  -96,000;    0,000;128,00000
 348,20;   30,000;  294,000;    0,000;-264,00000
 348,21;  -82,000;  162,000;    0,000;-244,00000
 348,23;   -1,000; -376,000;    0,000;375,00000
 348,24;   -5,000; -178,000;    0,000;173,00000
 348,26;   70,000;  374,000;    0,000;-304,00000
 348,27;  -16,000;  395,000;    0,000;-411,00000
 348,29;  -45,000; -481,000;    0,000;436,00000
 348,30;   47,000; -356,000;    0,000;403,00000
 348,32;  -56,000; -271,000;    0,000;215,00000
 348,33;   66,000;  417,000;    0,000;-351,00000
 348,35;   40,000; -528,000;    0,000;568,00000
 348,36;   21,000; -305,000;    0,000;326,00000
 348,38;  -46,000; -464,000;    0,000;418,00000
 348,39;   41,000;  238,000;    0,000;-197,00000
 348,41;    7,000; -553,000;    0,000;560,00000
 348,42;   19,000; -402,000;    0,000;421,00000
 348,44;  103,000;  474,000;    0,000;-371,00000
 348,45; -118,000;  -70,000;    0,000;-48,00000
 348,47;   85,000; -453,000;    0,000;538,00000
 348,48;   27,000; -179,000;    0,000;206,00000
 348,50;  126,000;  537,000;    0,000;-411,00000
 348,51;   -3,000;   81,000;    0,000;-84,00000
 348,53;    1,000; -305,000;    0,000;306,00000
 348,54;   18,000; -361,000;    0,000;379,00000
 348,55;   94,000;  101,000;    0,000;-7,00000
 348,57;   30,000;  370,000;    0,000;-340,00000
 348,58;   45,000; -467,000;    0,000;512,00000
 348,60;   28,000; -463,000;    0,000;491,00000
 348,61;   69,000;    8,000;    0,000;61,00000
 348,63;   94,000;  708,000;    0,000;-614,00000
 348,64;    5,000; -399,000;    0,000;404,00000
 348,66;  -10,000; -514,000;    0,000;504,00000
 348,67;  -30,000;  -31,000;    0,000; 1,00000
 348,69;  138,000;  462,000;    0,000;-324,00000
 348,70;   -3,000; -558,000;    0,000;555,00000
 348,72;   90,000;  -16,000;    0,000;106,00000
 348,73;  -61,000;  443,000;    0,000;-504,00000
 348,75;  -54,000;  220,000;    0,000;-274,00000
 348,76;   39,000; -259,000;    0,000;298,00000
 348,78;   74,000; -331,000;    0,000;405,00000
 348,79; -157,000; -372,000;    0,000;215,00000
 348,81;  -33,000;  -67,000;    0,000;34,00000
 348,82;  -71,000; -422,000;    0,000;351,00000
 348,83;  115,000;  146,000;    0,000;-31,00000
 348,85;    3,000;   93,000;    0,000;-90,00000
 348,86;  -21,000;   26,000;    0,000;-47,00000
 348,88;   66,000; -357,000;    0,000;423,00000
 348,89;  -12,000; -543,000;    0,000;531,00000
 348,91;  -30,000;   85,000;    0,000;-115,00000
 348,92;   -3,000;  244,000;    0,000;-247,00000
 348,94;   54,000; -185,000;    0,000;239,00000
 348,95;  -20,000; -423,000;    0,000;403,00000
 348,97;    4,000;   63,000;    0,000;-59,00000
 348,98;   84,000;  416,000;    0,000;-332,00000
 349,00;  -11,000; -648,000;    0,000;637,00000
 349,01;   24,000; -189,000;    0,000;213,00000
 349,03;   34,000;  -11,000;    0,000;45,00000
 349,04;   11,000;  289,000;    0,000;-278,00000
 349,05;  136,000;   28,000;    0,000;108,00000
 349,07;    8,000; -180,000;    0,000;188,00000
 349,08;  -80,000;  356,000;    0,000;-436,00000
 349,10;   14,000;  134,000;    0,000;-120,00000
 349,11;  -40,000; -443,000;    0,000;403,00000
 349,13;   59,000; -184,000;    0,000;243,00000
 349,14;   30,000; -132,000;    0,000;162,00000
 349,16;  -69,000;   16,000;    0,000;-85,00000
 349,17;  -19,000; -509,000;    0,000;490,00000
 349,19;    1,000; -366,000;    0,000;367,00000
 349,20;  -92,000; -192,000;    0,000;100,00000
 349,22;  -72,000;   60,000;    0,000;-132,00000
 349,23; -108,000; -586,000;    0,000;478,00000
 349,25;  -44,000; -541,000;    0,000;497,00000
 349,26;  -13,000;  617,000;    0,000;-630,00000
 349,27;   17,000;  240,000;    0,000;-223,00000
 349,29;  -28,000; -394,000;    0,000;366,00000
 349,30;  -63,000; -113,000;    0,000;50,00000
 349,32;    4,000;  114,000;    0,000;-110,00000
 349,33;  -37,000;  448,000;    0,000;-485,00000
 349,35; -113,000; -488,000;    0,000;375,00000
 349,36;   17,000; -457,000;    0,000;474,00000
 349,38;    1,000;   -4,000;    0,000; 5,00000
 349,39;  -19,000;  125,000;    0,000;-144,00000
 349,41;   62,000; -362,000;    0,000;424,00000
 349,42;   25,000; -116,000;    0,000;141,00000
 349,44;  125,000;  232,000;    0,000;-107,00000
 349,45;   28,000; -110,000;    0,000;138,00000
 349,46;    5,000;  -73,000;    0,000;78,00000
 349,48;   68,000; -171,000;    0,000;239,00000
 349,49;   43,000;  306,000;    0,000;-263,00000
 349,51;   36,000;  260,000;    0,000;-224,00000
 349,52;  -74,000; -507,000;    0,000;433,00000
 349,54;   54,000; -277,000;    0,000;331,00000
 349,55; -108,000; -283,000;    0,000;175,00000
 349,57;  -17,000; -315,000;    0,000;298,00000
 349,58;   78,000; -112,000;    0,000;190,00000
 349,60;   62,000; -340,000;    0,000;402,00000
 349,61;   25,000;  142,000;    0,000;-117,00000
 349,62;  101,000;  258,000;    0,000;-157,00000
 349,64;  -36,000; -353,000;    0,000;317,00000
 349,65;   44,000;  -80,000;    0,000;124,00000
 349,67;   71,000;  108,000;    0,000;-37,00000
 349,68;  -22,000;   99,000;    0,000;-121,00000
 349,70;  115,000; -147,000;    0,000;262,00000
 349,71;  133,000;   79,000;    0,000;54,00000
 349,73;  -66,000; -174,000;    0,000;108,00000
 349,74;   55,000;  158,000;    0,000;-103,00000
 349,76;   29,000; -322,000;    0,000;351,00000
 349,77;  -43,000; -278,000;    0,000;235,00000
 349,78;  -11,000;  126,000;    0,000;-137,00000
 349,80;   30,000;   67,000;    0,000;-37,00000
 349,81;   62,000; -343,000;    0,000;405,00000
 349,83;  102,000;   -1,000;    0,000;103,00000
 349,84;  -29,000;  255,000;    0,000;-284,00000
 349,86;   82,000;  279,000;    0,000;-197,00000
 349,87;   17,000; -280,000;    0,000;297,00000
 349,89;  -74,000; -288,000;    0,000;214,00000
 349,90;  117,000;  148,000;    0,000;-31,00000
 349,92;  121,000;  293,000;    0,000;-172,00000
 349,93;  -53,000; -292,000;    0,000;239,00000
 349,94;  112,000;   96,000;    0,000;16,00000
 349,96;  151,000;  402,000;    0,000;-251,00000
 349,97;   46,000;  292,000;    0,000;-246,00000
 349,99;  203,000; -217,000;    0,000;420,00000
 350,00;   77,000;  -92,000;    0,000;169,00000
 350,02;   70,000;  -20,000;    0,000;90,00000
 350,03;    1,000;   85,000;    0,000;-84,00000
 350,05;   41,000; -394,000;    0,000;435,00000
 350,06;   31,000; -217,000;    0,000;248,00000
 350,08; -119,000; -614,000;    0,000;495,00000
 350,09;  -20,000;  390,000;    0,000;-410,00000
 350,10;  -77,000; -159,000;    0,000;82,00000
 350,12;  -12,000;  235,000;    0,000;-247,00000
 350,13;   14,000;   -2,000;    0,000;16,00000
 350,15;   -8,000;  151,000;    0,000;-159,00000
 350,16;  -48,000; -509,000;    0,000;461,00000
 350,18;   51,000; -134,000;    0,000;185,00000
 350,19;  -34,000;  -36,000;    0,000; 2,00000
 350,21;   22,000;  103,000;    0,000;-81,00000
 350,22;   14,000; -352,000;    0,000;366,00000
 350,23;   99,000; -453,000;    0,000;552,00000
 350,25;  -24,000;   89,000;    0,000;-113,00000
 350,26;   22,000;  450,000;    0,000;-428,00000
 350,28;  -77,000; -724,000;    0,000;647,00000
 350,29;  -54,000;  -58,000;    0,000; 4,00000
 350,31;   14,000;   10,000;    0,000; 4,00000
 350,32;  -39,000; -176,000;    0,000;137,00000
 350,34;  -47,000; -427,000;    0,000;380,00000
 350,35;   57,000; -134,000;    0,000;191,00000
 350,36;   89,000;   75,000;    0,000;14,00000
 350,38;   42,000;  153,000;    0,000;-111,00000
 350,39;  -75,000; -316,000;    0,000;241,00000
 350,41;   86,000; -310,000;    0,000;396,00000
 350,42;   93,000;  217,000;    0,000;-124,00000
 350,44;   70,000;  355,000;    0,000;-285,00000
 350,45;   -9,000; -311,000;    0,000;302,00000
 350,47;  -56,000; -226,000;    0,000;170,00000
 350,48;   37,000; -181,000;    0,000;218,00000
 350,49;  -50,000; -262,000;    0,000;212,00000
 350,51;   23,000; -244,000;    0,000;267,00000
 350,52;  105,000; -344,000;    0,000;449,00000
 350,54;   -8,000;  215,000;    0,000;-223,00000
 350,55;  -10,000;   69,000;    0,000;-79,00000
 350,57;    7,000; -587,000;    0,000;594,00000
 350,58;   23,000;  452,000;    0,000;-429,00000
 350,59;  -79,000; -100,000;    0,000;21,00000
 350,61;   65,000;  275,000;    0,000;-210,00000
 350,62;  -43,000;   25,000;    0,000;-68,00000
 350,64;   21,000; -234,000;    0,000;255,00000
 350,65;  -22,000;  -22,000;    0,000; 0,00000
 350,67;   20,000;  306,000;    0,000;-286,00000
 350,68;   61,000; -462,000;    0,000;523,00000
 350,70;   56,000; -172,000;    0,000;228,00000
 350,71;   53,000;  127,000;    0,000;-74,00000
 350,72;   24,000; -103,000;    0,000;127,00000
 350,74;  -42,000; -449,000;    0,000;407,00000
 350,75;  -76,000; -383,000;    0,000;307,00000
 350,77;  -36,000; -214,000;    0,000;178,00000
 350,78;   50,000;  -13,000;    0,000;63,00000
 350,80;  -22,000; -341,000;    0,000;319,00000
 350,81;  186,000;  499,000;    0,000;-313,00000
 350,82;   18,000;   -1,000;    0,000;19,00000
 350,84;   39,000;  439,000;    0,000;-400,00000
 350,85;  -29,000; -212,000;    0,000;183,00000
 350,87;   10,000; -217,000;    0,000;227,00000
 350,88;  -13,000;   84,000;    0,000;-97,00000
 350,90;  -24,000;   47,000;    0,000;-71,00000
 350,91;   54,000; -390,000;    0,000;444,00000
 350,92;   17,000;  -94,000;    0,000;111,00000
 350,94;  -13,000;   44,000;    0,000;-57,00000
 350,95;   -9,000;  116,000;    0,000;-125,00000
 350,97;   -2,000;  -58,000;    0,000;56,00000
 350,98;   46,000; -261,000;    0,000;307,00000
 351,00;  -23,000;   21,000;    0,000;-44,00000
 351,01;  -43,000;  596,000;    0,000;-639,00000
 351,02;   16,000; -420,000;    0,000;436,00000
 351,04;  -58,000; -223,000;    0,000;165,00000
 351,05;  -17,000; -110,000;    0,000;93,00000
 351,07;   66,000;  390,000;    0,000;-324,00000
 351,08; -103,000; -384,000;    0,000;281,00000
 351,10;   43,000;   68,000;    0,000;-25,00000
 351,11;   79,000;   77,000;    0,000; 2,00000
 351,12;  -19,000;  -29,000;    0,000;10,00000
 351,14;   69,000; -221,000;    0,000;290,00000
 351,15;   90,000;  304,000;    0,000;-214,00000
 351,17;  -40,000;  -44,000;    0,000; 4,00000
 351,18;  -21,000;  544,000;    0,000;-565,00000
 351,20;   -3,000; -356,000;    0,000;353,00000
 351,21;   40,000;  -99,000;    0,000;139,00000
 351,22;   57,000;   82,000;    0,000;-25,00000
 351,24;   45,000;  144,000;    0,000;-99,00000
 351,25;   82,000; -344,000;    0,000;426,00000
 351,27;  -62,000; -188,000;    0,000;126,00000
 351,28;  -50,000;   45,000;    0,000;-95,00000
 351,30;  -38,000;  161,000;    0,000;-199,00000
 351,31;  -85,000; -208,000;    0,000;123,00000
 351,32;   -4,000; -124,000;    0,000;120,00000
 351,34;   59,000;  256,000;    0,000;-197,00000
 351,35;   68,000;  540,000;    0,000;-472,00000
 351,37;   15,000; -405,000;    0,000;420,00000
 351,38;  -63,000;    4,000;    0,000;-67,00000
 351,40;   14,000;  -54,000;    0,000;68,00000
 351,41;  -21,000; -176,000;    0,000;155,00000
 351,42;   20,000; -250,000;    0,000;270,00000
 351,44;  -77,000; -271,000;    0,000;194,00000
 351,45;  -49,000;  242,000;    0,000;-291,00000
 351,47;   -6,000;   85,000;    0,000;-91,00000
 351,48; -180,000; -384,000;    0,000;204,00000
 351,50;   69,000; -273,000;    0,000;342,00000
 351,51;  110,000;  389,000;    0,000;-279,00000
 351,52;  -25,000;  171,000;    0,000;-196,00000
 351,54;  -53,000; -345,000;    0,000;292,00000
 351,55;   83,000;  206,000;    0,000;-123,00000
 351,57;  -41,000;  174,000;    0,000;-215,00000
 351,58;  -40,000;  -12,000;    0,000;-28,00000
 351,59;   50,000;  -84,000;    0,000;134,00000
 351,61;   11,000;  167,000;    0,000;-156,00000
 351,62;  -28,000; -283,000;    0,000;255,00000
 351,64;   57,000;  285,000;    0,000;-228,00000
 351,65;  -52,000; -166,000;    0,000;114,00000
 351,67;   -4,000;  -42,000;    0,000;38,00000
 351,68;   38,000; -222,000;    0,000;260,00000
 351,69;  -39,000; -130,000;    0,000;91,00000
 351,71; -145,000; -281,000;    0,000;136,00000
 351,72;  -13,000; -381,000;    0,000;368,00000
 351,74;  -12,000; -217,000;    0,000;205,00000
 351,75;  -98,000; -151,000;    0,000;53,00000
 351,76;   -7,000; -377,000;    0,000;370,00000
 351,78;   33,000; -311,000;    0,000;344,00000
 351,79;   38,000;  114,000;    0,000;-76,00000
 351,81;  -39,000; -189,000;    0,000;150,00000
 351,82;  -51,000; -189,000;    0,000;138,00000
 351,84;  -12,000; -243,000;    0,000;231,00000
 351,85;  -13,000;  151,000;    0,000;-164,00000
 351,86;   54,000;  151,000;    0,000;-97,00000
 351,88;   69,000; -110,000;    0,000;179,00000
 351,89;    8,000; -189,000;    0,000;197,00000
 351,91;    0,000;   63,000;    0,000;-63,00000
 351,92;  -81,000; -393,000;    0,000;312,00000
 351,93;    9,000; -456,000;    0,000;465,00000
 351,95;  156,000; -121,000;    0,000;277,00000
 351,96;  -66,000;  130,000;    0,000;-196,00000
 351,98;   51,000;  307,000;    0,000;-256,00000
 351,99;   74,000; -236,000;    0,000;310,00000
 352,01;  -78,000; -250,000;    0,000;172,00000
 352,02;  -54,000;  -24,000;    0,000;-30,00000
 352,03;   70,000; -109,000;    0,000;179,00000
 352,05;    4,000; -128,000;    0,000;132,00000
 352,06;  -14,000; -354,000;    0,000;340,00000
 352,08;  -73,000; -317,000;    0,000;244,00000
 352,09;  206,000;  230,000;    0,000;-24,00000
 352,10;  -35,000; -268,000;    0,000;233,00000
 352,12;   55,000;  -88,000;    0,000;143,00000
 352,13;   93,000;  -15,000;    0,000;108,00000
 352,15;   33,000;  -71,000;    0,000;104,00000
 352,16;   51,000; -137,000;    0,000;188,00000
 352,17;   84,000; -364,000;    0,000;448,00000
 352,19;   -4,000;   48,000;    0,000;-52,00000
 352,20;   96,000;  196,000;    0,000;-100,00000
 352,22;   63,000; -141,000;    0,000;204,00000
 352,23;    9,000; -193,000;    0,000;202,00000
 352,24;  -36,000; -400,000;    0,000;364,00000
 352,26;   59,000;  484,000;    0,000;-425,00000
 352,27;   24,000; -270,000;    0,000;294,00000
 352,29;  137,000;  333,000;    0,000;-196,00000
 352,30;  111,000;  256,000;    0,000;-145,00000
 352,32;   -1,000;  -26,000;    0,000;25,00000
 352,33;  -80,000; -368,000;    0,000;288,00000
 352,34;   43,000; -335,000;    0,000;378,00000
 352,36;  -81,000; -245,000;    0,000;164,00000
 352,37;   23,000;   88,000;    0,000;-65,00000
 352,39; -124,000; -545,000;    0,000;421,00000
 352,40;   -7,000; -244,000;    0,000;237,00000
 352,41;  -10,000;   15,000;    0,000;-25,00000
 352,43;   63,000;  159,000;    0,000;-96,00000
 352,44;  -62,000; -346,000;    0,000;284,00000
 352,46;   23,000; -277,000;    0,000;300,00000
 352,47;  -91,000; -194,000;    0,000;103,00000
 352,48;   18,000;  141,000;    0,000;-123,00000
 352,50;   -4,000; -170,000;    0,000;166,00000
 352,51;  -44,000; -273,000;    0,000;229,00000
 352,53;  -78,000; -234,000;    0,000;156,00000
 352,54;  -66,000; -227,000;    0,000;161,00000
 352,55;   13,000;   37,000;    0,000;-24,00000
 352,57;  -25,000; -185,000;    0,000;160,00000
 352,58;   12,000; -110,000;    0,000;122,00000
 352,60;    6,000;   31,000;    0,000;-25,00000
 352,61;   53,000;   17,000;    0,000;36,00000
 352,62;   64,000;  -34,000;    0,000;98,00000
 352,64;  -84,000; -222,000;    0,000;138,00000
 352,65;   31,000;   47,000;    0,000;-16,00000
 352,67; -107,000; -612,000;    0,000;505,00000
 352,68;   68,000; -198,000;    0,000;266,00000
 352,69;   86,000;  -99,000;    0,000;185,00000
 352,71;   29,000;   71,000;    0,000;-42,00000
 352,72;   28,000; -202,000;    0,000;230,00000
 352,74;   56,000; -268,000;    0,000;324,00000
 352,75;   -6,000; -121,000;    0,000;115,00000
 352,76;   82,000;   40,000;    0,000;42,00000
 352,78;    7,000; -130,000;    0,000;137,00000
 352,79;   35,000; -215,000;    0,000;250,00000
 352,81;   26,000; -154,000;    0,000;180,00000
 352,82;  -26,000;  219,000;    0,000;-245,00000
 352,83;   29,000; -300,000;    0,000;329,00000
 352,85;    9,000;   25,000;    0,000;-16,00000
 352,86;   12,000;  -47,000;    0,000;59,00000
 352,88;   26,000;  179,000;    0,000;-153,00000
 352,89;   19,000;  -92,000;    0,000;111,00000
 352,90;  -20,000; -118,000;    0,000;98,00000
 352,92;   15,000;  165,000;    0,000;-150,00000
 352,93;  -61,000; -282,000;    0,000;221,00000
 352,94;   -5,000; -238,000;    0,000;233,00000
 352,96;   73,000; -110,000;    0,000;183,00000
 352,97;  -52,000; -329,000;    0,000;277,00000
 352,99;   55,000; -110,000;    0,000;165,00000
 353,00;  140,000;  205,000;    0,000;-65,00000
 353,01;  -17,000;  -59,000;    0,000;42,00000
 353,03;   41,000;  357,000;    0,000;-316,00000
 353,04;   61,000; -339,000;    0,000;400,00000
 353,06;   54,000; -153,000;    0,000;207,00000
 353,07;  173,000; -216,000;    0,000;389,00000
 353,08;  -26,000;  143,000;    0,000;-169,00000
 353,10;  -50,000;   18,000;    0,000;-68,00000
 353,11;   37,000;  -97,000;    0,000;134,00000
 353,13;   14,000; -169,000;    0,000;183,00000
 353,14;   19,000;  270,000;    0,000;-251,00000
 353,15;    8,000;    5,000;    0,000; 3,00000
 353,17;   11,000; -135,000;    0,000;146,00000
 353,18;  -80,000;  -51,000;    0,000;-29,00000
 353,20;   31,000;   90,000;    0,000;-59,00000
 353,21;  111,000;   95,000;    0,000;16,00000
 353,22;    8,000; -235,000;    0,000;243,00000
 353,24;   11,000;  -20,000;    0,000;31,00000
 353,25;   10,000;  -39,000;    0,000;49,00000
 353,26;  -43,000; -161,000;    0,000;118,00000
 353,28;   -2,000; -208,000;    0,000;206,00000
 353,29;  -81,000; -246,000;    0,000;165,00000
 353,31;  -20,000; -102,000;    0,000;82,00000
 353,32;   44,000;   94,000;    0,000;-50,00000
 353,33;  -45,000; -270,000;    0,000;225,00000
 353,35;   34,000; -100,000;    0,000;134,00000
 353,36;    0,000;   49,000;    0,000;-49,00000
 353,38; -117,000;  -39,000;    0,000;-78,00000
 353,39;    6,000; -299,000;    0,000;305,00000
 353,40;   55,000;  -59,000;    0,000;114,00000
 353,42;  -47,000;   10,000;    0,000;-57,00000
 353,43;   23,000;  284,000;    0,000;-261,00000
 353,44;   60,000;  -47,000;    0,000;107,00000
 353,46;   94,000; -174,000;    0,000;268,00000
 353,47; -132,000; -475,000;    0,000;343,00000
 353,49;   16,000;  -39,000;    0,000;55,00000
 353,50;   74,000; -312,000;    0,000;386,00000
 353,51;  -37,000; -202,000;    0,000;165,00000
 353,53;   97,000;   91,000;    0,000; 6,00000
 353,54;   91,000; -148,000;    0,000;239,00000
 353,56;   88,000;  -95,000;    0,000;183,00000
 353,57;  -58,000; -258,000;    0,000;200,00000
 353,58;  -84,000; -115,000;    0,000;31,00000
 353,60;   62,000;  151,000;    0,000;-89,00000
 353,61;   48,000; -178,000;    0,000;226,00000
 353,62;   77,000;   24,000;    0,000;53,00000
 353,64;   -3,000; -155,000;    0,000;152,00000
 353,65;  -75,000; -320,000;    0,000;245,00000
 353,67;   33,000; -214,000;    0,000;247,00000
 353,68;   11,000; -103,000;    0,000;114,00000
 353,69;   61,000;  -48,000;    0,000;109,00000
 353,71;  -40,000; -128,000;    0,000;88,00000
 353,72;  -33,000;  112,000;    0,000;-145,00000
 353,73;   18,000; -223,000;    0,000;241,00000
 353,75;   46,000;  -17,000;    0,000;63,00000
 353,76;  -68,000; -154,000;    0,000;86,00000
 353,78;  -54,000; -292,000;    0,000;238,00000
 353,79;  159,000;    0,000;    0,000;159,00000
 353,80;  -15,000;  -57,000;    0,000;42,00000
 353,82;  -52,000; -113,000;    0,000;61,00000
 353,83; -168,000; -587,000;    0,000;419,00000
 353,84;    6,000; -114,000;    0,000;120,00000
 353,86;    2,000; -298,000;    0,000;300,00000
 353,87;   84,000;  181,000;    0,000;-97,00000
 353,89;   18,000; -200,000;    0,000;218,00000
 353,90;   81,000;  230,000;    0,000;-149,00000
 353,91;  -93,000;  -91,000;    0,000;-2,00000
 353,93;  -42,000; -195,000;    0,000;153,00000
 353,94;   30,000; -243,000;    0,000;273,00000
 353,95;   22,000; -272,000;    0,000;294,00000
 353,97;   29,000;  291,000;    0,000;-262,00000
 353,98;   33,000;  -52,000;    0,000;85,00000
 354,00;   37,000; -111,000;    0,000;148,00000
 354,01;  -54,000; -180,000;    0,000;126,00000
 354,02;  -27,000;   10,000;    0,000;-37,00000
 354,04;  -12,000; -253,000;    0,000;241,00000
 354,05;  -17,000; -306,000;    0,000;289,00000
 354,06;   16,000;  -32,000;    0,000;48,00000
 354,08;  -51,000; -114,000;    0,000;63,00000
 354,09;  -66,000; -213,000;    0,000;147,00000
 354,11;   16,000; -224,000;    0,000;240,00000
 354,12;  -15,000;  -11,000;    0,000;-4,00000
 354,13;  -10,000;   40,000;    0,000;-50,00000
 354,15;   64,000;   85,000;    0,000;-21,00000
 354,16;  103,000;  210,000;    0,000;-107,00000
 354,17;   47,000;  256,000;    0,000;-209,00000
 354,19; -107,000; -509,000;    0,000;402,00000
 354,20;  -52,000; -142,000;    0,000;90,00000
 354,21;  -26,000; -197,000;    0,000;171,00000
 354,23;   43,000;  119,000;    0,000;-76,00000
 354,24;   -6,000; -246,000;    0,000;240,00000
 354,26;   90,000;   33,000;    0,000;57,00000
 354,27;   46,000; -291,000;    0,000;337,00000
 354,28;  -84,000; -355,000;    0,000;271,00000
 354,30;   70,000;  224,000;    0,000;-154,00000
 354,31;   76,000;  527,000;    0,000;-451,00000
 354,32;    9,000; -297,000;    0,000;306,00000
 354,34;  -50,000; -122,000;    0,000;72,00000
 354,35;   24,000;  -41,000;    0,000;65,00000
 354,37;  -90,000; -120,000;    0,000;30,00000
 354,38; -128,000; -322,000;    0,000;194,00000
 354,39;   86,000; -165,000;    0,000;251,00000
 354,41;   -7,000;   73,000;    0,000;-80,00000
 354,42;   71,000;    1,000;    0,000;70,00000
 354,43;  -27,000;  -36,000;    0,000; 9,00000
 354,45;  139,000; -125,000;    0,000;264,00000
 354,46;  -53,000; -124,000;    0,000;71,00000
 354,47;   50,000; -102,000;    0,000;152,00000
 354,49;   28,000;  -87,000;    0,000;115,00000
 354,50;    0,000; -286,000;    0,000;286,00000
 354,51;    0,000; -150,000;    0,000;150,00000
 354,53;  -55,000; -200,000;    0,000;145,00000
 354,54;  -49,000; -407,000;    0,000;358,00000
 354,56;   43,000; -142,000;    0,000;185,00000
 354,57;   44,000;  209,000;    0,000;-165,00000
 354,58;  -11,000; -283,000;    0,000;272,00000
 354,60;   17,000; -126,000;    0,000;143,00000
 354,61;  -15,000; -190,000;    0,000;175,00000
 354,62;   -8,000;   77,000;    0,000;-85,00000
 354,64;   23,000;  124,000;    0,000;-101,00000
 354,65;  113,000;   63,000;    0,000;50,00000
 354,66;   24,000;  239,000;    0,000;-215,00000
 354,68;   67,000;  321,000;    0,000;-254,00000
 354,69;  -87,000; -204,000;    0,000;117,00000
 354,71;   78,000; -212,000;    0,000;290,00000
 354,72;  -72,000; -119,000;    0,000;47,00000
 354,73;  -58,000; -108,000;    0,000;50,00000
 354,75;   65,000;  110,000;    0,000;-45,00000
 354,76;   13,000; -226,000;    0,000;239,00000
 354,77;    8,000; -308,000;    0,000;316,00000
 354,79;  -38,000;  -95,000;    0,000;57,00000
 354,80;    0,000;   32,000;    0,000;-32,00000
 354,81;   35,000;  -83,000;    0,000;118,00000
 354,83;  -30,000;  -95,000;    0,000;65,00000
 354,84;  -18,000;   42,000;    0,000;-60,00000
 354,85; -116,000; -186,000;    0,000;70,00000
 354,87;   -8,000;  -52,000;    0,000;44,00000
 354,88;  317,000;  144,000;    0,000;173,00000
 354,90;  -57,000;  -87,000;    0,000;30,00000
 354,91;  126,000;  451,000;    0,000;-325,00000
 354,92;   -4,000; -221,000;    0,000;217,00000
 354,94;   -3,000; -404,000;    0,000;401,00000
 354,95;   -7,000; -120,000;    0,000;113,00000
 354,96;   87,000;  -62,000;    0,000;149,00000
 354,98;  105,000; -188,000;    0,000;293,00000
 354,99;  111,000; -145,000;    0,000;256,00000
 355,00;   23,000;   92,000;    0,000;-69,00000
 355,02;  -48,000; -340,000;    0,000;292,00000
 355,03;  -90,000; -239,000;    0,000;149,00000
 355,04;  172,000;   76,000;    0,000;96,00000
 355,06;   68,000;  176,000;    0,000;-108,00000
 355,07;  -67,000;   94,000;    0,000;-161,00000
 355,08;   10,000; -182,000;    0,000;192,00000
 355,10;  122,000;  -76,000;    0,000;198,00000
 355,11;   62,000;  304,000;    0,000;-242,00000
 355,12;   27,000;  180,000;    0,000;-153,00000
 355,14;  -73,000; -645,000;    0,000;572,00000
 355,15;   28,000; -201,000;    0,000;229,00000
 355,17;  -41,000;  -82,000;    0,000;41,00000
 355,18;  120,000;  332,000;    0,000;-212,00000
 355,19;  -26,000; -138,000;    0,000;112,00000
 355,21;   57,000; -123,000;    0,000;180,00000
 355,22;  -20,000; -174,000;    0,000;154,00000
 355,23;  -83,000; -111,000;    0,000;28,00000
 355,25;  -18,000; -220,000;    0,000;202,00000
 355,26;    0,000;  -91,000;    0,000;91,00000
 355,27;  -27,000; -179,000;    0,000;152,00000
 355,29;   61,000;  125,000;    0,000;-64,00000
 355,30;   81,000;  219,000;    0,000;-138,00000
 355,31;   94,000; -206,000;    0,000;300,00000
 355,33;    8,000;  477,000;    0,000;-469,00000
 355,34;  116,000;   30,000;    0,000;86,00000
 355,35;   37,000; -235,000;    0,000;272,00000
 355,37;  104,000;  163,000;    0,000;-59,00000
 355,38;   59,000; -241,000;    0,000;300,00000
 355,39;   29,000;  106,000;    0,000;-77,00000
 355,41;    2,000; -225,000;    0,000;227,00000
 355,42;  114,000;   40,000;    0,000;74,00000
 355,43;  -40,000;   14,000;    0,000;-54,00000
 355,45;   25,000;  125,000;    0,000;-100,00000
 355,46;   -7,000; -209,000;    0,000;202,00000
 355,47;   68,000;  391,000;    0,000;-323,00000
 355,49;   -1,000; -290,000;    0,000;289,00000
 355,50;  -11,000;  601,000;    0,000;-612,00000
 355,52;   65,000; -157,000;    0,000;222,00000
 355,53;   20,000; -111,000;    0,000;131,00000
 355,54;   14,000; -162,000;    0,000;176,00000
 355,56;  -33,000;   37,000;    0,000;-70,00000
 355,57;   93,000;  -33,000;    0,000;126,00000
 355,58;   44,000; -121,000;    0,000;165,00000
 355,60;   48,000;   -7,000;    0,000;55,00000
 355,61;   12,000;  107,000;    0,000;-95,00000
 355,62;  -28,000; -145,000;    0,000;117,00000
 355,64;  102,000; -171,000;    0,000;273,00000
 355,65;   42,000;   58,000;    0,000;-16,00000
 355,66;   91,000;  258,000;    0,000;-167,00000
 355,68;   78,000;  -64,000;    0,000;142,00000
 355,69;   27,000;  231,000;    0,000;-204,00000
 355,70;  -21,000; -117,000;    0,000;96,00000
 355,72;  -54,000; -185,000;    0,000;131,00000
 355,73; -136,000; -451,000;    0,000;315,00000
 355,74;   28,000; -166,000;    0,000;194,00000
 355,76;   58,000;  -54,000;    0,000;112,00000
 355,77;  127,000;   79,000;    0,000;48,00000
 355,78;  -81,000; -348,000;    0,000;267,00000
 355,80;   -5,000;  -62,000;    0,000;57,00000
 355,81;    0,000;   -5,000;    0,000; 5,00000
 355,82;  -36,000; -263,000;    0,000;227,00000
 355,84;   22,000;  -20,000;    0,000;42,00000
 355,85;   61,000;  -46,000;    0,000;107,00000
 355,86;  -28,000; -127,000;    0,000;99,00000
 355,88;   69,000;  -81,000;    0,000;150,00000
 355,89;  -14,000;  -29,000;    0,000;15,00000
 355,90;  -22,000;  -96,000;    0,000;74,00000
 355,92;   25,000; -117,000;    0,000;142,00000
 355,93;  -67,000;   52,000;    0,000;-119,00000
 355,94;   91,000; -130,000;    0,000;221,00000
 355,96;   56,000;  121,000;    0,000;-65,00000
 355,97;    9,000; -158,000;    0,000;167,00000
 355,98;  -46,000; -465,000;    0,000;419,00000
 356,00;   25,000; -264,000;    0,000;289,00000
 356,01;   43,000;  -31,000;    0,000;74,00000
 356,02;   74,000;  185,000;    0,000;-111,00000
 356,04;   96,000;  -31,000;    0,000;127,00000
 356,05;   41,000;  186,000;    0,000;-145,00000
 356,06;    8,000; -114,000;    0,000;122,00000
 356,08;    6,000; -181,000;    0,000;187,00000
 356,09;  -38,000;  -94,000;    0,000;56,00000
 356,10;  -46,000; -441,000;    0,000;395,00000
 356,12;  124,000;  135,000;    0,000;-11,00000
 356,13;  -76,000; -153,000;    0,000;77,00000
 356,14;   34,000;   49,000;    0,000;-15,00000
 356,16;   17,000; -105,000;    0,000;122,00000
 356,17;   -4,000;  -47,000;    0,000;43,00000
 356,18;   -6,000; -140,000;    0,000;134,00000
 356,20;  -59,000; -131,000;    0,000;72,00000
 356,21;    1,000;  163,000;    0,000;-162,00000
 356,22; -116,000; -221,000;    0,000;105,00000
 356,24;   40,000;   39,000;    0,000; 1,00000
 356,25;   -6,000;   42,000;    0,000;-48,00000
 356,26;   57,000; -141,000;    0,000;198,00000
 356,28;   30,000; -229,000;    0,000;259,00000
 356,29;   76,000;  154,000;    0,000;-78,00000
 356,30;   37,000;   85,000;    0,000;-48,00000
 356,31;   77,000; -227,000;    0,000;304,00000
 356,33;   42,000;  -97,000;    0,000;139,00000
 356,34;  -13,000; -204,000;    0,000;191,00000
 356,35;   77,000;  -25,000;    0,000;102,00000
 356,37;   -1,000; -167,000;    0,000;166,00000
 356,38;    0,000;   74,000;    0,000;-74,00000
 356,39;  -41,000;  164,000;    0,000;-205,00000
 356,41;   53,000;  -92,000;    0,000;145,00000
 356,42; -101,000;  -16,000;    0,000;-85,00000
 356,43;   47,000;  270,000;    0,000;-223,00000
 356,45;  -32,000; -449,000;    0,000;417,00000
 356,46;  -81,000;  -18,000;    0,000;-63,00000
 356,47;  -39,000; -206,000;    0,000;167,00000
 356,49;    7,000; -258,000;    0,000;265,00000
 356,50;  124,000;   85,000;    0,000;39,00000
 356,51;   57,000;    9,000;    0,000;48,00000
 356,53;    0,000; -159,000;    0,000;159,00000
 356,54;  100,000; -179,000;    0,000;279,00000
 356,55; -128,000; -313,000;    0,000;185,00000
 356,57;   53,000;   60,000;    0,000;-7,00000
 356,58;   27,000;  393,000;    0,000;-366,00000
 356,59;  107,000; -114,000;    0,000;221,00000
 356,61;  -30,000; -103,000;    0,000;73,00000
 356,62;  -39,000; -381,000;    0,000;342,00000
 356,63;  -69,000; -326,000;    0,000;257,00000
 356,65;   55,000;   38,000;    0,000;17,00000
 356,66;  -16,000;  -15,000;    0,000;-1,00000
 356,67;   16,000; -136,000;    0,000;152,00000
 356,68;  -17,000; -396,000;    0,000;379,00000
 356,70;   65,000;  233,000;    0,000;-168,00000
 356,71;  -74,000;  -41,000;    0,000;-33,00000
 356,72;  -69,000;   32,000;    0,000;-101,00000
 356,74;   12,000; -122,000;    0,000;134,00000
 356,75;   23,000;   80,000;    0,000;-57,00000
 356,76;   63,000;  137,000;    0,000;-74,00000
 356,78;    0,000;  105,000;    0,000;-105,00000
 356,79;  -98,000; -586,000;    0,000;488,00000
 356,80;  111,000;   49,000;    0,000;62,00000
 356,82;   94,000;  138,000;    0,000;-44,00000
 356,83;    3,000;  -52,000;    0,000;55,00000
 356,84;   -8,000; -239,000;    0,000;231,00000
 356,86;  -78,000; -271,000;    0,000;193,00000
 356,87;  -22,000;  -49,000;    0,000;27,00000
 356,88;  -28,000;  169,000;    0,000;-197,00000
 356,89;  -66,000; -212,000;    0,000;146,00000
 356,91;  -15,000; -310,000;    0,000;295,00000
 356,92;  -35,000; -503,000;    0,000;468,00000
 356,93;  118,000;  359,000;    0,000;-241,00000
 356,95;   52,000; -403,000;    0,000;455,00000
 356,96;   60,000;  272,000;    0,000;-212,00000
 356,97;   81,000;  463,000;    0,000;-382,00000
 356,99;   -6,000; -164,000;    0,000;158,00000
 357,00;   55,000;  -10,000;    0,000;65,00000
 357,01;    7,000; -226,000;    0,000;233,00000
 357,03;    4,000;   52,000;    0,000;-48,00000
 357,04;   74,000;    3,000;    0,000;71,00000
 357,05;   49,000;   12,000;    0,000;37,00000
 357,07;  135,000;  197,000;    0,000;-62,00000
 357,08;  -32,000;  -61,000;    0,000;29,00000
 357,09;    3,000; -184,000;    0,000;187,00000
 357,10;  159,000;  152,000;    0,000; 7,00000
 357,12;  -74,000; -168,000;    0,000;94,00000
 357,13;  -10,000; -285,000;    0,000;275,00000
 357,14;  -25,000;   61,000;    0,000;-86,00000
 357,16;  -88,000; -574,000;    0,000;486,00000
 357,17;   39,000;  -96,000;    0,000;135,00000
 357,18;  -71,000; -330,000;    0,000;259,00000
 357,20;   12,000;  -91,000;    0,000;103,00000
 357,21;   36,000;   83,000;    0,000;-47,00000
 357,22;  -41,000; -215,000;    0,000;174,00000
 357,24;  -36,000; -246,000;    0,000;210,00000
 357,25;  142,000;  141,000;    0,000; 1,00000
 357,26;   -2,000;  -69,000;    0,000;67,00000
 357,27;   37,000;   49,000;    0,000;-12,00000
 357,29;   70,000;  279,000;    0,000;-209,00000
 357,30;  -47,000; -115,000;    0,000;68,00000
 357,31;  -53,000;  -71,000;    0,000;18,00000
 357,33;  -86,000; -573,000;    0,000;487,00000
 357,34;   51,000;   71,000;    0,000;-20,00000
 357,35; -108,000; -297,000;    0,000;189,00000
 357,37;  -93,000;  -49,000;    0,000;-44,00000
 357,38;  -19,000; -414,000;    0,000;395,00000
 357,39;    1,000;  -50,000;    0,000;51,00000
 357,40;    9,000;   91,000;    0,000;-82,00000
 357,42;   36,000;    6,000;    0,000;30,00000
 357,43;  -45,000; -289,000;    0,000;244,00000
 357,44;  -57,000; -145,000;    0,000;88,00000
 357,46;   42,000;  -17,000;    0,000;59,00000
 357,47;   -9,000;  -24,000;    0,000;15,00000
 357,48;  163,000;  -23,000;    0,000;186,00000
 357,50;  -50,000; -226,000;    0,000;176,00000
 357,51;   21,000;   65,000;    0,000;-44,00000
 357,52;  -35,000; -144,000;    0,000;109,00000
 357,53;   25,000; -226,000;    0,000;251,00000
 357,55;  540,000;  149,000;    0,000;391,00000
 357,56;   70,000;  189,000;    0,000;-119,00000
 357,57;  145,000;   -3,000;    0,000;148,00000
 357,59;   44,000;  234,000;    0,000;-190,00000
 357,60;  -25,000;  107,000;    0,000;-132,00000
 357,61;  -61,000; -408,000;    0,000;347,00000
 357,63;   35,000;  -95,000;    0,000;130,00000
 357,64;   36,000; -130,000;    0,000;166,00000
 357,65;   12,000; -197,000;    0,000;209,00000
 357,66;  -59,000; -271,000;    0,000;212,00000
 357,68;  -40,000; -318,000;    0,000;278,00000
 357,69;   73,000; -124,000;    0,000;197,00000
 357,70;   28,000; -303,000;    0,000;331,00000
 357,72;    9,000; -237,000;    0,000;246,00000
 357,73;  -37,000; -449,000;    0,000;412,00000
 357,74;   61,000;  -93,000;    0,000;154,00000
 357,75;  -39,000; -104,000;    0,000;65,00000
 357,77;   -1,000;  -70,000;    0,000;69,00000
 357,78; -135,000; -438,000;    0,000;303,00000
 357,79;  -19,000; -153,000;    0,000;134,00000
 357,81;  -25,000;  110,000;    0,000;-135,00000
 357,82;   20,000;   30,000;    0,000;-10,00000
 357,83;   24,000;  119,000;    0,000;-95,00000
 357,85;   52,000;  139,000;    0,000;-87,00000
 357,86;  -83,000; -166,000;    0,000;83,00000
 357,87;  -89,000;  -73,000;    0,000;-16,00000
 357,88;   32,000; -399,000;    0,000;431,00000
 357,90;    5,000;   89,000;    0,000;-84,00000
 357,91;   86,000;  230,000;    0,000;-144,00000
 357,92; -112,000; -435,000;    0,000;323,00000
 357,94;  -26,000; -178,000;    0,000;152,00000
 357,95;  121,000;  284,000;    0,000;-163,00000
 357,96;    9,000;   73,000;    0,000;-64,00000
 357,97;   -2,000;  331,000;    0,000;-333,00000
 357,99;   72,000;  -49,000;    0,000;121,00000
 358,00;  -22,000;   63,000;    0,000;-85,00000
 358,01;  -57,000; -366,000;    0,000;309,00000
 358,03; -138,000; -614,000;    0,000;476,00000
 358,04;  -43,000;  156,000;    0,000;-199,00000
 358,05;    7,000; -183,000;    0,000;190,00000
 358,06;   17,000;   78,000;    0,000;-61,00000
 358,08;   11,000;   81,000;    0,000;-70,00000
 358,09;   49,000; -135,000;    0,000;184,00000
 358,10;  -62,000;   50,000;    0,000;-112,00000
 358,12;  100,000;   55,000;    0,000;45,00000
 358,13; -108,000; -189,000;    0,000;81,00000
 358,14;   -8,000;  -39,000;    0,000;31,00000
 358,15;   60,000;   40,000;    0,000;20,00000
 358,17;  -15,000;  -23,000;    0,000; 8,00000
 358,18;   39,000;  -99,000;    0,000;138,00000
 358,19;  -24,000; -178,000;    0,000;154,00000
 358,21;   35,000;   56,000;    0,000;-21,00000
 358,22;   -2,000;  -84,000;    0,000;82,00000
 358,23;  -24,000;    4,000;    0,000;-28,00000
 358,24;   60,000;  -89,000;    0,000;149,00000
 358,26;   11,000;  247,000;    0,000;-236,00000
 358,27;    0,000;   82,000;    0,000;-82,00000
 358,28;   36,000; -122,000;    0,000;158,00000
 358,30;   56,000;   94,000;    0,000;-38,00000
 358,31;    1,000;  -99,000;    0,000;100,00000
 358,32;   30,000;   60,000;    0,000;-30,00000
 358,33;   83,000;  137,000;    0,000;-54,00000
 358,35;   18,000; -167,000;    0,000;185,00000
 358,36;   25,000;  -45,000;    0,000;70,00000
 358,37;  -49,000; -205,000;    0,000;156,00000
 358,39;  -12,000;   66,000;    0,000;-78,00000
 358,40;    2,000;    5,000;    0,000;-3,00000
 358,41;   26,000;   18,000;    0,000; 8,00000
 358,42;   31,000;   82,000;    0,000;-51,00000
 358,44;   -5,000;  -77,000;    0,000;72,00000
 358,45;  156,000;   53,000;    0,000;103,00000
 358,46;   20,000;   12,000;    0,000; 8,00000
 358,48;  -55,000; -233,000;    0,000;178,00000
 358,49;   61,000;  353,000;    0,000;-292,00000
 358,50;  -76,000; -154,000;    0,000;78,00000
 358,51;   39,000;   72,000;    0,000;-33,00000
 358,53;  -14,000; -238,000;    0,000;224,00000
 358,54;   46,000; -227,000;    0,000;273,00000
 358,55;    9,000; -205,000;    0,000;214,00000
 358,56;    7,000; -219,000;    0,000;226,00000
 358,58;   22,000;  142,000;    0,000;-120,00000
 358,59;   50,000;  133,000;    0,000;-83,00000
 358,60;   59,000; -177,000;    0,000;236,00000
 358,62;  -24,000; -195,000;    0,000;171,00000
 358,63;   18,000; -169,000;    0,000;187,00000
 358,64;   52,000;    9,000;    0,000;43,00000
 358,65;  -23,000;   25,000;    0,000;-48,00000
 358,67;   49,000;  -69,000;    0,000;118,00000
 358,68;  -70,000; -455,000;    0,000;385,00000
 358,69;  158,000;    1,000;    0,000;157,00000
 358,70;   86,000; -195,000;    0,000;281,00000
 358,72;  -18,000; -266,000;    0,000;248,00000
 358,73;  -97,000; -122,000;    0,000;25,00000
 358,74;   64,000;  -32,000;    0,000;96,00000
 358,76;  -13,000; -137,000;    0,000;124,00000
 358,77;   86,000; -212,000;    0,000;298,00000
 358,78;  -55,000; -369,000;    0,000;314,00000
 358,79;   85,000;  235,000;    0,000;-150,00000
 358,81;  -10,000; -256,000;    0,000;246,00000
 358,82;   41,000; -159,000;    0,000;200,00000
 358,83;   15,000; -234,000;    0,000;249,00000
 358,84;   34,000;  -87,000;    0,000;121,00000
 358,86;  125,000;  -24,000;    0,000;149,00000
 358,87;   20,000; -226,000;    0,000;246,00000
 358,88;    9,000;  -59,000;    0,000;68,00000
 358,90;  -71,000; -127,000;    0,000;56,00000
 358,91;   29,000; -223,000;    0,000;252,00000
 358,92;  208,000;  134,000;    0,000;74,00000
 358,93;   88,000;  -45,000;    0,000;133,00000
 358,95;  -92,000; -220,000;    0,000;128,00000
 358,96; -133,000; -337,000;    0,000;204,00000
 358,97;  -56,000; -152,000;    0,000;96,00000
 358,98;   -6,000; -167,000;    0,000;161,00000
 359,00;   55,000;  375,000;    0,000;-320,00000
 359,01;   52,000;   96,000;    0,000;-44,00000
 359,02;   61,000; -163,000;    0,000;224,00000
 359,03;   32,000;   52,000;    0,000;-20,00000
 359,05;   34,000; -120,000;    0,000;154,00000
 359,06;    0,000; -162,000;    0,000;162,00000
 359,07;  -99,000;  -12,000;    0,000;-87,00000
 359,09;   13,000; -315,000;    0,000;328,00000
 359,10;   79,000;  306,000;    0,000;-227,00000
 359,11;  139,000;  198,000;    0,000;-59,00000
 359,12;   51,000; -105,000;    0,000;156,00000
 359,14;  -71,000; -366,000;    0,000;295,00000
 359,15;  -64,000; -126,000;    0,000;62,00000
 359,16;  -22,000; -157,000;    0,000;135,00000
 359,17;   59,000; -249,000;    0,000;308,00000
 359,19;  -24,000;  -14,000;    0,000;-10,00000
 359,20;   34,000;    3,000;    0,000;31,00000
 359,21;   88,000;  -79,000;    0,000;167,00000
 359,22;    6,000;   97,000;    0,000;-91,00000
 359,24;   14,000; -152,000;    0,000;166,00000
 359,25;   35,000;  191,000;    0,000;-156,00000
 359,26;   23,000; -144,000;    0,000;167,00000
 359,27;  107,000;  -64,000;    0,000;171,00000
 359,29;  -19,000; -199,000;    0,000;180,00000
 359,30;    8,000;  -64,000;    0,000;72,00000
 359,31;   34,000; -212,000;    0,000;246,00000
 359,33;  -39,000; -290,000;    0,000;251,00000
 359,34;  -12,000;   68,000;    0,000;-80,00000
 359,35;   38,000;   18,000;    0,000;20,00000
 359,36;   70,000;  132,000;    0,000;-62,00000
 359,38;  -32,000; -114,000;    0,000;82,00000
 359,39;  -97,000; -417,000;    0,000;320,00000
 359,40;    9,000; -270,000;    0,000;279,00000
 359,41;   23,000; -103,000;    0,000;126,00000
 359,43;  -72,000;  -50,000;    0,000;-22,00000
 359,44;   72,000; -117,000;    0,000;189,00000
 359,45;    1,000;   59,000;    0,000;-58,00000
 359,46;  141,000;  -43,000;    0,000;184,00000
 359,48;   -5,000; -352,000;    0,000;347,00000
 359,49;   62,000; -123,000;    0,000;185,00000
 359,50;    1,000;  -15,000;    0,000;16,00000
 359,51;   -7,000; -100,000;    0,000;93,00000
 359,53;  -76,000; -166,000;    0,000;90,00000
 359,54;  -24,000;  -58,000;    0,000;34,00000
 359,55;   46,000;   78,000;    0,000;-32,00000
 359,56;   27,000; -287,000;    0,000;314,00000
 359,58;   32,000;   10,000;    0,000;22,00000
 359,59;   28,000; -219,000;    0,000;247,00000
 359,60;   95,000;   47,000;    0,000;48,00000
 359,61;  -39,000; -291,000;    0,000;252,00000
 359,63;  143,000; -116,000;    0,000;259,00000
 359,64;   -6,000; -165,000;    0,000;159,00000
 359,65;   39,000;  252,000;    0,000;-213,00000
 359,66;   36,000;  -40,000;    0,000;76,00000
 359,68;   28,000; -304,000;    0,000;332,00000
 359,69;  -38,000; -274,000;    0,000;236,00000
 359,70;   16,000;  -63,000;    0,000;79,00000
 359,71;    8,000; -200,000;    0,000;208,00000
 359,73;   -7,000; -258,000;    0,000;251,00000
 359,74;    8,000;  -66,000;    0,000;74,00000
 359,75;   40,000;  -69,000;    0,000;109,00000
 359,76;   98,000;  -27,000;    0,000;125,00000
 359,78;   83,000;  116,000;    0,000;-33,00000
 359,79;    3,000;  -83,000;    0,000;86,00000
 359,80;  -63,000; -369,000;    0,000;306,00000
 359,81;  -52,000; -328,000;    0,000;276,00000
 359,83;   12,000; -100,000;    0,000;112,00000
 359,84;    2,000; -182,000;    0,000;184,00000
 359,85;   27,000; -130,000;    0,000;157,00000
 359,86;    7,000; -242,000;    0,000;249,00000
 359,88;  -89,000; -190,000;    0,000;101,00000
 359,89;    4,000;  134,000;    0,000;-130,00000
 359,90;  112,000;  369,000;    0,000;-257,00000
 359,91;  -76,000;   43,000;    0,000;-119,00000
 359,93;  117,000;  177,000;    0,000;-60,00000
 359,94;  -82,000; -507,000;    0,000;425,00000
 359,95;   69,000; -125,000;    0,000;194,00000
 359,96;    8,000; -197,000;    0,000;205,00000
 359,98;   19,000; -197,000;    0,000;216,00000
 359,99;  -39,000; -359,000;    0,000;320,00000
 360,00;  -24,000;  102,000;    0,000;-126,00000
 360,01;  -27,000; -172,000;    0,000;145,00000
 360,03;  131,000;   45,000;    0,000;86,00000
 360,04;   62,000;  -62,000;    0,000;124,00000
 360,05;   48,000;    0,000;    0,000;48,00000
 360,06;   -6,000; -231,000;    0,000;225,00000
 360,08;   88,000;  510,000;    0,000;-422,00000
 360,09;  -74,000; -159,000;    0,000;85,00000
 360,10;    8,000;  -71,000;    0,000;79,00000
 360,11;  -54,000;  -22,000;    0,000;-32,00000
 360,13;    8,000; -248,000;    0,000;256,00000
 360,14;   10,000; -297,000;    0,000;307,00000
 360,15;   14,000;    2,000;    0,000;12,00000
 360,16;   94,000;  141,000;    0,000;-47,00000
 360,17;  -28,000;    5,000;    0,000;-33,00000
 360,19;   14,000; -212,000;    0,000;226,00000
 360,20;   10,000; -103,000;    0,000;113,00000
 360,21;  123,000; -185,000;    0,000;308,00000
 360,22;   -6,000;  212,000;    0,000;-218,00000
 360,24;   -8,000;    1,000;    0,000;-9,00000
 360,25;  -34,000; -298,000;    0,000;264,00000
 360,26;  -11,000;   21,000;    0,000;-32,00000
 360,27;   47,000;  329,000;    0,000;-282,00000
 360,29;    3,000; -272,000;    0,000;275,00000
 360,30;   61,000;  -32,000;    0,000;93,00000
 360,31;   -5,000;   45,000;    0,000;-50,00000
 360,32;   86,000;  -14,000;    0,000;100,00000
 360,34;  -32,000; -213,000;    0,000;181,00000
 360,35;    5,000; -182,000;    0,000;187,00000
 360,36;   67,000;   32,000;    0,000;35,00000
 360,37;   37,000;  112,000;    0,000;-75,00000
 360,39;  -49,000; -171,000;    0,000;122,00000
 360,40;   29,000; -335,000;    0,000;364,00000
 360,41;   19,000; -279,000;    0,000;298,00000
 360,42;   -1,000; -186,000;    0,000;185,00000
 360,43;   31,000;    8,000;    0,000;23,00000
 360,45;  -19,000; -202,000;    0,000;183,00000
 360,46;  -15,000; -117,000;    0,000;102,00000
 360,47;  -33,000; -120,000;    0,000;87,00000
 360,48;  -78,000;  -31,000;    0,000;-47,00000
 360,50;  -77,000; -134,000;    0,000;57,00000
 360,51;   47,000;   27,000;    0,000;20,00000
 360,52;   94,000;   -7,000;    0,000;101,00000
 360,53;   -2,000; -284,000;    0,000;282,00000
 360,55;  -28,000; -200,000;    0,000;172,00000
 360,56;   -4,000; -225,000;    0,000;221,00000
 360,57;   11,000;    5,000;    0,000; 6,00000
 360,58;  -35,000;  -37,000;    0,000; 2,00000
 360,59;   38,000; -144,000;    0,000;182,00000
 360,61;  -56,000;   -6,000;    0,000;-50,00000
 360,62;   17,000;   63,000;    0,000;-46,00000
 360,63;   36,000;  -29,000;    0,000;65,00000
 360,64;   78,000;  139,000;    0,000;-61,00000
 360,66;   71,000;  -10,000;    0,000;81,00000
 360,67;   21,000; -153,000;    0,000;174,00000
 360,68;   11,000;   60,000;    0,000;-49,00000
 360,69;  -45,000;  -69,000;    0,000;24,00000
 360,71;   27,000;  -14,000;    0,000;41,00000
 360,72;   89,000;  267,000;    0,000;-178,00000
 360,73;   -5,000; -272,000;    0,000;267,00000
 360,74;   -1,000; -146,000;    0,000;145,00000
 360,75;   74,000;   70,000;    0,000; 4,00000
 360,77;  113,000;    9,000;    0,000;104,00000
 360,78;  121,000;  -18,000;    0,000;139,00000
 360,79;  -29,000; -304,000;    0,000;275,00000
 360,80;   80,000;  -53,000;    0,000;133,00000
 360,82;  220,000;   -9,000;    0,000;229,00000
 360,83;   75,000; -107,000;    0,000;182,00000
 360,84;  146,000;  -85,000;    0,000;231,00000
 360,85;  276,000; -186,000;    0,000;462,00000
 360,86;  501,000;  -21,000;    0,000;522,00000
 360,88;  630,000;  -72,000;    0,000;702,00000
 360,89;  923,000; -120,000;    0,000;1043,00000
 360,90; 1143,000; -110,000;    0,000;1253,00000
 360,91; 1461,000; -121,000;    0,000;1582,00000
 360,93; 1639,000;   94,000;    0,000;1545,00000
 360,94; 1754,000;   28,000;    0,000;1726,00000
 360,95; 1856,000;  -16,000;    0,000;1872,00000
 360,96; 2287,000;  -45,000;    0,000;2332,00000
 360,97; 3167,000;   98,000;    0,000;3069,00000
 360,99; 4897,000;  101,000;    0,000;4796,00000
 361,00; 7761,000;  144,000;    0,000;7617,00000
 361,01;10907,000;  -66,000;    0,000;10973,00000
 361,02;11818,000;  -46,000;    0,000;11864,00000
 361,04;11801,000;  -89,000;    0,000;11890,00000
 361,05; 8411,000;  137,000;    0,000;8274,00000
 361,06; 5218,000;  248,000;    0,000;4970,00000
 361,07; 2920,000; -291,000;    0,000;3211,00000
 361,08; 1746,000; -237,000;    0,000;1983,00000
 361,10; 1229,000; -384,000;    0,000;1613,00000
 361,11;  925,000; -172,000;    0,000;1097,00000
 361,12; 1069,000;  -30,000;    0,000;1099,00000
 361,13; 1065,000;  -70,000;    0,000;1135,00000
 361,15; 1113,000;  -40,000;    0,000;1153,00000
 361,16; 1200,000; -136,000;    0,000;1336,00000
 361,17; 1163,000;  -62,000;    0,000;1225,00000
 361,18; 1220,000; -283,000;    0,000;1503,00000
 361,19; 1381,000; -189,000;    0,000;1570,00000
 361,21; 1870,000;  -40,000;    0,000;1910,00000
 361,22; 2644,000; -236,000;    0,000;2880,00000
 361,23; 4087,000;  -61,000;    0,000;4148,00000
 361,24; 6332,000;   39,000;    0,000;6293,00000
 361,26; 7746,000;  107,000;    0,000;7639,00000
 361,27; 8091,000;  132,000;    0,000;7959,00000
 361,28; 6255,000; -226,000;    0,000;6481,00000
 361,29; 3894,000;   80,000;    0,000;3814,00000
 361,30; 2363,000; -103,000;    0,000;2466,00000
 361,32; 1193,000; -230,000;    0,000;1423,00000
 361,33;  959,000;   88,000;    0,000;871,00000
 361,34;  608,000;  105,000;    0,000;503,00000
 361,35;  418,000;  -18,000;    0,000;436,00000
 361,36;  450,000;   33,000;    0,000;417,00000
 361,38;  554,000;  -67,000;    0,000;621,00000
 361,39;  498,000;   38,000;    0,000;460,00000
 361,40; 1003,000;  -88,000;    0,000;1091,00000
 361,41; 1073,000; -119,000;    0,000;1192,00000
 361,42; 1010,000; -276,000;    0,000;1286,00000
 361,44;  811,000;  405,000;    0,000;406,00000
 361,45;  502,000;  131,000;    0,000;371,00000
 361,46;  292,000; -230,000;    0,000;522,00000
 361,47;  230,000;  -16,000;    0,000;246,00000
 361,49;   93,000;   62,000;    0,000;31,00000
 361,50;  113,000;  -88,000;    0,000;201,00000
 361,51;  107,000; -134,000;    0,000;241,00000
 361,52;  153,000;  -71,000;    0,000;224,00000
 361,53;   17,000;  -84,000;    0,000;101,00000
 361,55;  124,000;  -67,000;    0,000;191,00000
 361,56;   77,000;    0,000;    0,000;77,00000
 361,57;  -13,000; -569,000;    0,000;556,00000
 361,58;   39,000;  -87,000;    0,000;126,00000
 361,59;   22,000; -166,000;    0,000;188,00000
 361,61;   38,000; -301,000;    0,000;339,00000
 361,62;  152,000;  206,000;    0,000;-54,00000
 361,63;   64,000;  -72,000;    0,000;136,00000
 361,64;   93,000;  -76,000;    0,000;169,00000
 361,65;   41,000;   97,000;    0,000;-56,00000
 361,67;  178,000; -251,000;    0,000;429,00000
 361,68;  114,000;  -13,000;    0,000;127,00000
 361,69;  115,000;  352,000;    0,000;-237,00000
 361,70;   33,000;  -72,000;    0,000;105,00000
 361,71;   88,000;  -58,000;    0,000;146,00000
 361,73;   -1,000;   31,000;    0,000;-32,00000
 361,74;   74,000;  -31,000;    0,000;105,00000
 361,75;   86,000; -134,000;    0,000;220,00000
 361,76;    6,000;   36,000;    0,000;-30,00000
 361,77;  -48,000;   43,000;    0,000;-91,00000
 361,79;  -25,000;   25,000;    0,000;-50,00000
 361,80;  -19,000; -375,000;    0,000;356,00000
 361,81;   24,000;  -71,000;    0,000;95,00000
 361,82;  -79,000;  -94,000;    0,000;15,00000
 361,83;   37,000; -111,000;    0,000;148,00000
 361,85;  210,000;   55,000;    0,000;155,00000
 361,86;  -28,000; -408,000;    0,000;380,00000
 361,87;   20,000; -113,000;    0,000;133,00000
 361,88;   60,000;   19,000;    0,000;41,00000
 361,89;   43,000;   39,000;    0,000; 4,00000
 361,91;   60,000;   19,000;    0,000;41,00000
 361,92;  108,000; -118,000;    0,000;226,00000
 361,93;  -39,000;  -61,000;    0,000;22,00000
 361,94;   54,000; -362,000;    0,000;416,00000
 361,95;   13,000; -295,000;    0,000;308,00000
 361,97;  -18,000;  -82,000;    0,000;64,00000
 361,98;   17,000; -119,000;    0,000;136,00000
 361,99;    9,000;   94,000;    0,000;-85,00000
 362,00;   56,000;  -21,000;    0,000;77,00000
 362,01;   63,000;  -43,000;    0,000;106,00000
 362,03;  126,000;  155,000;    0,000;-29,00000
 362,04;  -93,000; -227,000;    0,000;134,00000
 362,05;   26,000;  129,000;    0,000;-103,00000
 362,06;  -30,000;  -96,000;    0,000;66,00000
 362,07;   83,000;  -30,000;    0,000;113,00000
 362,09;   79,000; -192,000;    0,000;271,00000
 362,10;  -25,000;   24,000;    0,000;-49,00000
 362,11;  -29,000; -127,000;    0,000;98,00000
 362,12;   50,000;   28,000;    0,000;22,00000
 362,13;  -72,000;  -43,000;    0,000;-29,00000
 362,15;   93,000;   76,000;    0,000;17,00000
 362,16;   -6,000; -250,000;    0,000;244,00000
 362,17;  -61,000; -140,000;    0,000;79,00000
 362,18;  -67,000; -354,000;    0,000;287,00000
 362,19;   41,000;  148,000;    0,000;-107,00000
 362,21;  -25,000; -214,000;    0,000;189,00000
 362,22;  106,000;  217,000;    0,000;-111,00000
 362,23;   78,000; -218,000;    0,000;296,00000
 362,24;  112,000;   41,000;    0,000;71,00000
 362,25;  -67,000; -204,000;    0,000;137,00000
 362,27;  133,000;  351,000;    0,000;-218,00000
 362,28;   67,000;  195,000;    0,000;-128,00000
 362,29;    0,000; -129,000;    0,000;129,00000
 362,30;  -34,000;   25,000;    0,000;-59,00000
 362,31;   58,000;  -44,000;    0,000;102,00000
 362,32;  -75,000; -232,000;    0,000;157,00000
 362,34;  -57,000;  -49,000;    0,000;-8,00000
 362,35;    4,000;   -6,000;    0,000;10,00000
 362,36;   22,000;   70,000;    0,000;-48,00000
 362,37;  -19,000;  -26,000;    0,000; 7,00000
 362,38;  -38,000; -186,000;    0,000;148,00000
 362,40; -106,000;   -8,000;    0,000;-98,00000
 362,41;    5,000;  -67,000;    0,000;72,00000
 362,42;  -15,000;  -69,000;    0,000;54,00000
 362,43;  -36,000;  -67,000;    0,000;31,00000
 362,44;  -51,000; -285,000;    0,000;234,00000
 362,46;   16,000; -272,000;    0,000;288,00000
 362,47;  -23,000;  -49,000;    0,000;26,00000
 362,48;   96,000;   65,000;    0,000;31,00000
 362,49;    2,000; -189,000;    0,000;191,00000
 362,50;   24,000;   93,000;    0,000;-69,00000
 362,51;  -82,000; -146,000;    0,000;64,00000
 362,53;  -52,000; -153,000;    0,000;101,00000
 362,54;    2,000;  -19,000;    0,000;21,00000
 362,55;   78,000;   57,000;    0,000;21,00000
 362,56;   -2,000;   21,000;    0,000;-23,00000
 362,57;   66,000;  -33,000;    0,000;99,00000
 362,59;  112,000;  136,000;    0,000;-24,00000
 362,60;  134,000;   42,000;    0,000;92,00000
 362,61;   39,000;  123,000;    0,000;-84,00000
 362,62;  108,000;  228,000;    0,000;-120,00000
 362,63;   43,000;  -42,000;    0,000;85,00000
 362,65;   89,000; -122,000;    0,000;211,00000
 362,66;  -55,000; -149,000;    0,000;94,00000
 362,67;   -9,000; -147,000;    0,000;138,00000
 362,68;   10,000; -124,000;    0,000;134,00000
 362,69;  -27,000;   51,000;    0,000;-78,00000
 362,70;   33,000; -247,000;    0,000;280,00000
 362,72;   34,000; -121,000;    0,000;155,00000
 362,73;   52,000; -167,000;    0,000;219,00000
 362,74;   94,000;   10,000;    0,000;84,00000
 362,75;   -5,000; -138,000;    0,000;133,00000
 362,76;   82,000;  -98,000;    0,000;180,00000
 362,77;   19,000;  -56,000;    0,000;75,00000
 362,79;    5,000;  -52,000;    0,000;57,00000
 362,80;   11,000;  279,000;    0,000;-268,00000
 362,81;   39,000; -211,000;    0,000;250,00000
 362,82;   51,000;  525,000;    0,000;-474,00000
 362,83;   67,000;   54,000;    0,000;13,00000
 362,85; -101,000; -366,000;    0,000;265,00000
 362,86;   67,000; -121,000;    0,000;188,00000
 362,87;  -76,000; -125,000;    0,000;49,00000
 362,88;  155,000;  182,000;    0,000;-27,00000
 362,89;   36,000; -131,000;    0,000;167,00000
 362,90;   77,000;  113,000;    0,000;-36,00000
 362,92;   -4,000;  -42,000;    0,000;38,00000
 362,93;  -45,000; -271,000;    0,000;226,00000
 362,94;  -22,000; -113,000;    0,000;91,00000
 362,95;  -61,000; -376,000;    0,000;315,00000
 362,96;   91,000;  167,000;    0,000;-76,00000
 362,97;   35,000;   77,000;    0,000;-42,00000
 362,99;   56,000; -375,000;    0,000;431,00000
 363,00;   16,000; -277,000;    0,000;293,00000
 363,01;   -8,000; -198,000;    0,000;190,00000
 363,02;  113,000; -125,000;    0,000;238,00000
 363,03;   60,000; -145,000;    0,000;205,00000
 363,05;   29,000;   24,000;    0,000; 5,00000
 363,06;   24,000;  104,000;    0,000;-80,00000
 363,07;   75,000;  283,000;    0,000;-208,00000
 363,08;   23,000; -244,000;    0,000;267,00000
 363,09;   79,000;   37,000;    0,000;42,00000
 363,10;  -31,000; -204,000;    0,000;173,00000
 363,12;  -25,000; -226,000;    0,000;201,00000
 363,13;  -30,000; -172,000;    0,000;142,00000
 363,14;  -13,000; -322,000;    0,000;309,00000
 363,15;  -18,000; -391,000;    0,000;373,00000
 363,16;   10,000; -142,000;    0,000;152,00000
 363,17; -106,000; -547,000;    0,000;441,00000
 363,19;  -56,000; -404,000;    0,000;348,00000
 363,20;   30,000;  -19,000;    0,000;49,00000
 363,21;   16,000;   40,000;    0,000;-24,00000
 363,22;  -71,000; -111,000;    0,000;40,00000
 363,23;   18,000; -210,000;    0,000;228,00000
 363,24;  106,000;   32,000;    0,000;74,00000
 363,26;   92,000;  384,000;    0,000;-292,00000
 363,27; -134,000;   96,000;    0,000;-230,00000
 363,28;   22,000;   22,000;    0,000; 0,00000
 363,29;  -75,000; -173,000;    0,000;98,00000
 363,30;   90,000;   92,000;    0,000;-2,00000
 363,31;  -92,000; -148,000;    0,000;56,00000
 363,33;   28,000;  224,000;    0,000;-196,00000
 363,34;  -21,000;  -91,000;    0,000;70,00000
 363,35;   36,000; -245,000;    0,000;281,00000
 363,36;  -93,000; -336,000;    0,000;243,00000
 363,37;   -5,000;  -80,000;    0,000;75,00000
 363,38;  -44,000; -130,000;    0,000;86,00000
 363,40;   -3,000;  -60,000;    0,000;57,00000
 363,41;  128,000;  -42,000;    0,000;170,00000
 363,42;  119,000;   96,000;    0,000;23,00000
 363,43;    0,000; -326,000;    0,000;326,00000
 363,44;  -27,000; -383,000;    0,000;356,00000
 363,45;   17,000; -278,000;    0,000;295,00000
 363,47;   93,000;  293,000;    0,000;-200,00000
 363,48;  -16,000;   64,000;    0,000;-80,00000
 363,49;   51,000;   51,000;    0,000; 0,00000
 363,50;   19,000;  -95,000;    0,000;114,00000
 363,51;   98,000; -179,000;    0,000;277,00000
 363,52;  -47,000; -181,000;    0,000;134,00000
 363,53;   63,000;   20,000;    0,000;43,00000
 363,55;  -32,000; -214,000;    0,000;182,00000
 363,56;   51,000; -246,000;    0,000;297,00000
 363,57;  -61,000; -233,000;    0,000;172,00000
 363,58;    2,000;   39,000;    0,000;-37,00000
 363,59;  -48,000; -348,000;    0,000;300,00000
 363,60;  -49,000; -179,000;    0,000;130,00000
 363,62;   46,000; -227,000;    0,000;273,00000
 363,63;  143,000;    9,000;    0,000;134,00000
 363,64;   -7,000; -102,000;    0,000;95,00000
 363,65;   -7,000; -246,000;    0,000;239,00000
 363,66;   42,000; -217,000;    0,000;259,00000
 363,67;  -24,000;   52,000;    0,000;-76,00000
 363,69;  100,000;  -73,000;    0,000;173,00000
 363,70;  118,000; -127,000;    0,000;245,00000
 363,71;   55,000;  -65,000;    0,000;120,00000
 363,72;  -14,000; -259,000;    0,000;245,00000
 363,73;   40,000; -106,000;    0,000;146,00000
 363,74;   -3,000; -169,000;    0,000;166,00000
 363,75;   -1,000;  -69,000;    0,000;68,00000
 363,77;   33,000;  -73,000;    0,000;106,00000
 363,78;  -25,000; -245,000;    0,000;220,00000
 363,79;   95,000;  141,000;    0,000;-46,00000
 363,80;   19,000; -120,000;    0,000;139,00000
 363,81;    5,000; -131,000;    0,000;136,00000
 363,82; -115,000; -186,000;    0,000;71,00000
 363,84;  -51,000; -225,000;    0,000;174,00000
 363,85;   18,000;  -41,000;    0,000;59,00000
 363,86;   79,000;  182,000;    0,000;-103,00000
 363,87;  -47,000; -267,000;    0,000;220,00000
 363,88;  -40,000; -357,000;    0,000;317,00000
 363,89;   27,000; -180,000;    0,000;207,00000
 363,90;  -20,000;  -17,000;    0,000;-3,00000
 363,92; -100,000; -187,000;    0,000;87,00000
 363,93;   70,000;  -16,000;    0,000;86,00000
 363,94;  104,000;  -24,000;    0,000;128,00000
 363,95;  -17,000;  174,000;    0,000;-191,00000
 363,96;   10,000; -290,000;    0,000;300,00000
 363,97;   -3,000;  -82,000;    0,000;79,00000
 363,99;  -49,000; -124,000;    0,000;75,00000
 364,00;  117,000; -172,000;    0,000;289,00000
 364,01;   28,000;  -99,000;    0,000;127,00000
 364,02;  -74,000; -365,000;    0,000;291,00000
 364,03;   27,000;  131,000;    0,000;-104,00000
 364,04;  -37,000;  -10,000;    0,000;-27,00000
 364,05; -101,000; -208,000;    0,000;107,00000
 364,07;   65,000; -106,000;    0,000;171,00000
 364,08;  -49,000; -224,000;    0,000;175,00000
 364,09;   13,000;  585,000;    0,000;-572,00000
 364,10;   -6,000;  -31,000;    0,000;25,00000
 364,11;   45,000; -182,000;    0,000;227,00000
 364,12;  -51,000; -243,000;    0,000;192,00000
 364,13;   25,000; -104,000;    0,000;129,00000
 364,15;  -31,000; -249,000;    0,000;218,00000
 364,16;  -42,000;  -86,000;    0,000;44,00000
 364,17;  -43,000; -407,000;    0,000;364,00000
 364,18;  -38,000; -246,000;    0,000;208,00000
 364,19;  -11,000; -144,000;    0,000;133,00000
 364,20;  -28,000; -137,000;    0,000;109,00000
 364,21;   29,000; -257,000;    0,000;286,00000
 364,23;   42,000;   64,000;    0,000;-22,00000
 364,24; -107,000; -205,000;    0,000;98,00000
 364,25;   48,000; -164,000;    0,000;212,00000
 364,26; -152,000; -246,000;    0,000;94,00000
 364,27;  -58,000;  -23,000;    0,000;-35,00000
 364,28;  -93,000; -418,000;    0,000;325,00000
 364,29;   -8,000;   -1,000;    0,000;-7,00000
 364,31;   32,000;  -40,000;    0,000;72,00000
 364,32;    1,000; -287,000;    0,000;288,00000
 364,33;   -3,000; -265,000;    0,000;262,00000
 364,34;  -11,000; -197,000;    0,000;186,00000
 364,35;   10,000;  -26,000;    0,000;36,00000
 364,36;  -31,000;  -20,000;    0,000;-11,00000
 364,37;   -7,000; -353,000;    0,000;346,00000
 364,39;   36,000; -171,000;    0,000;207,00000
 364,40;  -11,000; -152,000;    0,000;141,00000
 364,41;   52,000;   67,000;    0,000;-15,00000
 364,42;  -31,000; -264,000;    0,000;233,00000
 364,43;   76,000; -107,000;    0,000;183,00000
 364,44;  -74,000; -313,000;    0,000;239,00000
 364,45;  -22,000;  -38,000;    0,000;16,00000
 364,46; -134,000; -200,000;    0,000;66,00000
 364,48;    0,000; -346,000;    0,000;346,00000
 364,49;   -8,000; -245,000;    0,000;237,00000
 364,50;  -50,000;    7,000;    0,000;-57,00000
 364,51;   11,000; -113,000;    0,000;124,00000
 364,52;  -68,000;  -78,000;    0,000;10,00000
 364,53;   66,000;  -93,000;    0,000;159,00000
 364,54;   71,000; -169,000;    0,000;240,00000
 364,56;   -9,000; -298,000;    0,000;289,00000
 364,57;  -91,000;   49,000;    0,000;-140,00000
 364,58;   60,000; -393,000;    0,000;453,00000
 364,59;   50,000;  -91,000;    0,000;141,00000
 364,60;   18,000; -160,000;    0,000;178,00000
 364,61;  -25,000; -305,000;    0,000;280,00000
 364,62;  -27,000;  -61,000;    0,000;34,00000
 364,64;   53,000; -175,000;    0,000;228,00000
 364,65;  -11,000;  -47,000;    0,000;36,00000
 364,66;   38,000; -196,000;    0,000;234,00000
 364,67;   52,000;   86,000;    0,000;-34,00000
 364,68;  -30,000; -189,000;    0,000;159,00000
 364,69;  -17,000; -257,000;    0,000;240,00000
 364,70;   12,000;  728,000;    0,000;-716,00000
 364,71;   27,000; -146,000;    0,000;173,00000
 364,73;   29,000;  -43,000;    0,000;72,00000
 364,74;   43,000;  -76,000;    0,000;119,00000
 364,75;   23,000; -275,000;    0,000;298,00000
 364,76;    2,000;   44,000;    0,000;-42,00000
 364,77;   39,000; -151,000;    0,000;190,00000
 364,78;  -63,000; -293,000;    0,000;230,00000
 364,79;   19,000; -104,000;    0,000;123,00000
 364,80;   18,000; -131,000;    0,000;149,00000
 364,82;  -12,000; -122,000;    0,000;110,00000
 364,83;   26,000; -309,000;    0,000;335,00000
 364,84;   18,000;  -39,000;    0,000;57,00000
 364,85;   -2,000; -462,000;    0,000;460,00000
 364,86;  128,000;  140,000;    0,000;-12,00000
 364,87;   -2,000; -107,000;    0,000;105,00000
 364,88;   48,000;   27,000;    0,000;21,00000
 364,89;   63,000;    9,000;    0,000;54,00000
 364,91;   20,000; -145,000;    0,000;165,00000
 364,92;   24,000; -264,000;    0,000;288,00000
 364,93;  116,000; -106,000;    0,000;222,00000
 364,94;  116,000;  -38,000;    0,000;154,00000
 364,95;   47,000;   36,000;    0,000;11,00000
 364,96;    8,000; -202,000;    0,000;210,00000
 364,97;    5,000; -282,000;    0,000;287,00000
 364,98;  -18,000;  181,000;    0,000;-199,00000
 365,00;   55,000;   73,000;    0,000;-18,00000
 365,01;  -78,000; -370,000;    0,000;292,00000
 365,02;   11,000; -273,000;    0,000;284,00000
 365,03;  119,000; -107,000;    0,000;226,00000
 365,04;   82,000;  126,000;    0,000;-44,00000
 365,05;  -12,000; -273,000;    0,000;261,00000
 365,06;  -54,000; -299,000;    0,000;245,00000
 365,07;    0,000; -174,000;    0,000;174,00000
 365,09;   27,000;  -32,000;    0,000;59,00000
 365,10;  -77,000; -359,000;    0,000;282,00000
 365,11;    1,000; -301,000;    0,000;302,00000
 365,12;  -83,000; -129,000;    0,000;46,00000
 365,13;    1,000;  -29,000;    0,000;30,00000
 365,14;  -54,000;  -44,000;    0,000;-10,00000
 365,15;    9,000;  106,000;    0,000;-97,00000
 365,16;  -15,000; -160,000;    0,000;145,00000
 365,18;   32,000;   23,000;    0,000; 9,00000
 365,19;  -35,000;  -30,000;    0,000;-5,00000
 365,20;   12,000; -250,000;    0,000;262,00000
 365,21;  173,000;  297,000;    0,000;-124,00000
 365,22;   42,000;  122,000;    0,000;-80,00000
 365,23;  -16,000; -308,000;    0,000;292,00000
 365,24;  -40,000; -379,000;    0,000;339,00000
 365,25;  -22,000; -119,000;    0,000;97,00000
 365,26;   22,000; -162,000;    0,000;184,00000
 365,28;   17,000; -233,000;    0,000;250,00000
 365,29;   47,000; -198,000;    0,000;245,00000
 365,30;  -86,000;   35,000;    0,000;-121,00000
 365,31;   14,000; -112,000;    0,000;126,00000
 365,32;   19,000; -219,000;    0,000;238,00000
 365,33;   20,000; -361,000;    0,000;381,00000
 365,34;   -8,000; -237,000;    0,000;229,00000
 365,35;   18,000;  -73,000;    0,000;91,00000
 365,36;   -9,000; -406,000;    0,000;397,00000
 365,38;  -27,000; -170,000;    0,000;143,00000
 365,39;  -46,000;  -76,000;    0,000;30,00000
 365,40;  -53,000; -139,000;    0,000;86,00000
 365,41;   -3,000; -208,000;    0,000;205,00000
 365,42;   17,000; -307,000;    0,000;324,00000
 365,43;   69,000;   33,000;    0,000;36,00000
 365,44;  -18,000;   60,000;    0,000;-78,00000
 365,45;  -60,000; -663,000;    0,000;603,00000
 365,46;  -32,000; -198,000;    0,000;166,00000
 365,48; -111,000; -233,000;    0,000;122,00000
 365,49;   -2,000;   28,000;    0,000;-30,00000
 365,50;   -3,000; -250,000;    0,000;247,00000
 365,51;   33,000;  144,000;    0,000;-111,00000
 365,52;   44,000;  -91,000;    0,000;135,00000
 365,53;   14,000;  215,000;    0,000;-201,00000
 365,54;  -15,000; -408,000;    0,000;393,00000
 365,55;  -80,000; -349,000;    0,000;269,00000
 365,56;   13,000;  -70,000;    0,000;83,00000
 365,58;   -7,000;  -20,000;    0,000;13,00000
 365,59;   27,000; -402,000;    0,000;429,00000
 365,60;   98,000;  -58,000;    0,000;156,00000
 365,61;   54,000; -118,000;    0,000;172,00000
 365,62;   94,000; -171,000;    0,000;265,00000
 365,63;   25,000; -236,000;    0,000;261,00000
 365,64;   11,000;  -91,000;    0,000;102,00000
 365,65;  -47,000;  139,000;    0,000;-186,00000
 365,66;   48,000;  -25,000;    0,000;73,00000
 365,68;  -61,000; -113,000;    0,000;52,00000
 365,69;  -12,000; -438,000;    0,000;426,00000
 365,70;  -56,000; -193,000;    0,000;137,00000
 365,71;  142,000;   -9,000;    0,000;151,00000
 365,72;   54,000;   54,000;    0,000; 0,00000
 365,73;   33,000; -107,000;    0,000;140,00000
 365,74;  -20,000; -303,000;    0,000;283,00000
 365,75;   23,000;  -49,000;    0,000;72,00000
 365,76;  -37,000;   36,000;    0,000;-73,00000
 365,77;  -20,000; -313,000;    0,000;293,00000
 365,79;    1,000; -151,000;    0,000;152,00000
 365,80;  -49,000; -146,000;    0,000;97,00000
 365,81;  -34,000;   54,000;    0,000;-88,00000
 365,82;   51,000; -186,000;    0,000;237,00000
 365,83;    6,000;  -30,000;    0,000;36,00000
 365,84;  -28,000;  -62,000;    0,000;34,00000
 365,85;  102,000;  -97,000;    0,000;199,00000
 365,86;  -18,000; -159,000;    0,000;141,00000
 365,87;  -10,000; -157,000;    0,000;147,00000
 365,88;   46,000; -119,000;    0,000;165,00000
 365,90;  -34,000;  -39,000;    0,000; 5,00000
 365,91;   -2,000;  169,000;    0,000;-171,00000
 365,92;  -71,000; -147,000;    0,000;76,00000
 365,93;  -62,000; -319,000;    0,000;257,00000
 365,94;   21,000; -157,000;    0,000;178,00000
 365,95;   26,000; -240,000;    0,000;266,00000
 365,96;   71,000;  -27,000;    0,000;98,00000
 365,97;  -10,000;  122,000;    0,000;-132,00000
 365,98;  -97,000;  -23,000;    0,000;-74,00000
 365,99;  -14,000; -353,000;    0,000;339,00000
 366,01;  119,000;  266,000;    0,000;-147,00000
 366,02;   59,000;  -30,000;    0,000;89,00000
 366,03;  -33,000; -179,000;    0,000;146,00000
 366,04;   39,000; -272,000;    0,000;311,00000
 366,05;   51,000;  178,000;    0,000;-127,00000
 366,06;   45,000;  -81,000;    0,000;126,00000
 366,07;  -32,000; -439,000;    0,000;407,00000
 366,08;  -23,000; -266,000;    0,000;243,00000
 366,09;   52,000; -108,000;    0,000;160,00000
 366,10;  -93,000; -355,000;    0,000;262,00000
 366,11;   79,000;  -68,000;    0,000;147,00000
 366,13;  -89,000; -186,000;    0,000;97,00000
 366,14;  -51,000; -237,000;    0,000;186,00000
 366,15;   19,000; -206,000;    0,000;225,00000
 366,16;   -6,000; -145,000;    0,000;139,00000
 366,17;   -1,000;   16,000;    0,000;-17,00000
 366,18;  -66,000; -191,000;    0,000;125,00000
 366,19;  -20,000;  273,000;    0,000;-293,00000
 366,20;    8,000; -273,000;    0,000;281,00000
 366,21;   40,000; -219,000;    0,000;259,00000
 366,22;    0,000; -288,000;    0,000;288,00000
 366,24;   42,000; -190,000;    0,000;232,00000
 366,25;  -28,000; -427,000;    0,000;399,00000
 366,26;   11,000; -205,000;    0,000;216,00000
 366,27;  -80,000; -231,000;    0,000;151,00000
 366,28;   55,000;   -4,000;    0,000;59,00000
 366,29;   -7,000; -383,000;    0,000;376,00000
 366,30;  113,000;  -90,000;    0,000;203,00000
 366,31;  -30,000;  -92,000;    0,000;62,00000
 366,32;   61,000;  178,000;    0,000;-117,00000
 366,33;  -44,000; -496,000;    0,000;452,00000
 366,34;   60,000; -196,000;    0,000;256,00000
 366,35;  -61,000;   59,000;    0,000;-120,00000
 366,37;   60,000;  312,000;    0,000;-252,00000
 366,38; -105,000; -315,000;    0,000;210,00000
 366,39;  123,000;  -52,000;    0,000;175,00000
 366,40;  100,000;  168,000;    0,000;-68,00000
 366,41;  -11,000;  -17,000;    0,000; 6,00000
 366,42;   76,000; -246,000;    0,000;322,00000
 366,43;   53,000;    6,000;    0,000;47,00000
 366,44;  -42,000;  -14,000;    0,000;-28,00000
 366,45;   -3,000;  -12,000;    0,000; 9,00000
 366,46;  -83,000; -302,000;    0,000;219,00000
 366,47;   41,000;   57,000;    0,000;-16,00000
 366,49;   41,000;  423,000;    0,000;-382,00000
 366,50;  -64,000; -267,000;    0,000;203,00000
 366,51;  -41,000;   50,000;    0,000;-91,00000
 366,52;   52,000; -143,000;    0,000;195,00000
 366,53;   27,000;   89,000;    0,000;-62,00000
 366,54;  114,000;  -81,000;    0,000;195,00000
 366,55;  -28,000;   29,000;    0,000;-57,00000
 366,56;   55,000;  -25,000;    0,000;80,00000
 366,57;   28,000; -229,000;    0,000;257,00000
 366,58;  -35,000; -106,000;    0,000;71,00000
 366,59;   83,000;  -64,000;    0,000;147,00000
 366,60;   39,000; -158,000;    0,000;197,00000
 366,61;  114,000; -208,000;    0,000;322,00000
 366,63;  -21,000;  -25,000;    0,000; 4,00000
 366,64;    1,000; -403,000;    0,000;404,00000
 366,65;  -59,000; -102,000;    0,000;43,00000
 366,66;   -2,000; -169,000;    0,000;167,00000
 366,67;   10,000;  184,000;    0,000;-174,00000
 366,68;  -66,000; -106,000;    0,000;40,00000
 366,69;   42,000; -144,000;    0,000;186,00000
 366,70;    5,000;    5,000;    0,000; 0,00000
 366,71;  -24,000; -287,000;    0,000;263,00000
 366,72;  -63,000; -454,000;    0,000;391,00000
 366,73;   82,000;  -91,000;    0,000;173,00000
 366,74;  -57,000;  -84,000;    0,000;27,00000
 366,75;  106,000;  -82,000;    0,000;188,00000
 366,77;   26,000;  -81,000;    0,000;107,00000
 366,78;   30,000; -217,000;    0,000;247,00000
 366,79; -103,000;  115,000;    0,000;-218,00000
 366,80;   79,000; -202,000;    0,000;281,00000
 366,81;   -5,000; -153,000;    0,000;148,00000
 366,82;  -54,000; -133,000;    0,000;79,00000
 366,83;  -19,000; -208,000;    0,000;189,00000
 366,84;  128,000;  101,000;    0,000;27,00000
 366,85;  -38,000; -289,000;    0,000;251,00000
 366,86;  -93,000; -259,000;    0,000;166,00000
 366,87;   39,000;  294,000;    0,000;-255,00000
 366,88;   32,000; -188,000;    0,000;220,00000
 366,89;  180,000;   91,000;    0,000;89,00000
 366,91; -112,000; -143,000;    0,000;31,00000
 366,92;  -26,000;  -99,000;    0,000;73,00000
 366,93;  -17,000; -197,000;    0,000;180,00000
 366,94;  -54,000; -204,000;    0,000;150,00000
 366,95;   37,000; -203,000;    0,000;240,00000
 366,96; -162,000; -209,000;    0,000;47,00000
 366,97;  -56,000;  -84,000;    0,000;28,00000
 366,98;  -62,000; -286,000;    0,000;224,00000
 366,99;  124,000;  174,000;    0,000;-50,00000
 367,00;  157,000;   49,000;    0,000;108,00000
 367,01;  -82,000; -259,000;    0,000;177,00000
 367,02; -154,000; -112,000;    0,000;-42,00000
 367,03;  -10,000; -371,000;    0,000;361,00000
 367,04;   24,000; -145,000;    0,000;169,00000
 367,06;   24,000; -216,000;    0,000;240,00000
 367,07;  -69,000;  147,000;    0,000;-216,00000
 367,08;   24,000; -102,000;    0,000;126,00000
 367,09;    1,000;  103,000;    0,000;-102,00000
 367,10;  129,000; -133,000;    0,000;262,00000
 367,11;    2,000;  -84,000;    0,000;86,00000
 367,12;   17,000; -353,000;    0,000;370,00000
 367,13;   10,000;  309,000;    0,000;-299,00000
 367,14;  -56,000;   61,000;    0,000;-117,00000
 367,15;   15,000; -276,000;    0,000;291,00000
 367,16;  104,000; -156,000;    0,000;260,00000
 367,17;   51,000; -182,000;    0,000;233,00000
 367,18;  -68,000; -272,000;    0,000;204,00000
 367,19; -124,000; -361,000;    0,000;237,00000
 367,20;   17,000; -166,000;    0,000;183,00000
 367,21;   -2,000;  -36,000;    0,000;34,00000
 367,23;   29,000; -287,000;    0,000;316,00000
 367,24;  -20,000; -152,000;    0,000;132,00000
 367,25;   39,000;  -71,000;    0,000;110,00000
 367,26;  -13,000; -125,000;    0,000;112,00000
 367,27;  160,000; -156,000;    0,000;316,00000
 367,28;   55,000; -403,000;    0,000;458,00000
 367,29;   21,000; -178,000;    0,000;199,00000
 367,30;   24,000; -159,000;    0,000;183,00000
 367,31;   55,000; -107,000;    0,000;162,00000
 367,32;  -36,000; -370,000;    0,000;334,00000
 367,33;   37,000; -152,000;    0,000;189,00000
 367,34;  -65,000; -161,000;    0,000;96,00000
 367,35;    3,000; -132,000;    0,000;135,00000
 367,36;   38,000; -131,000;    0,000;169,00000
 367,37;   37,000; -153,000;    0,000;190,00000
 367,38;  -21,000; -328,000;    0,000;307,00000
 367,40;   49,000; -219,000;    0,000;268,00000
 367,41;    6,000; -156,000;    0,000;162,00000
 367,42;  -80,000;  126,000;    0,000;-206,00000
 367,43;   45,000;   74,000;    0,000;-29,00000
 367,44;   85,000; -130,000;    0,000;215,00000
 367,45;  -17,000;  -83,000;    0,000;66,00000
 367,46;   10,000; -158,000;    0,000;168,00000
 367,47;  -80,000; -197,000;    0,000;117,00000
 367,48;   82,000;   23,000;    0,000;59,00000
 367,49;  -25,000; -135,000;    0,000;110,00000
 367,50;  -13,000; -326,000;    0,000;313,00000
 367,51;   65,000;  171,000;    0,000;-106,00000
 367,52;   49,000; -111,000;    0,000;160,00000
 367,53;   53,000;   96,000;    0,000;-43,00000
 367,54;  119,000; -188,000;    0,000;307,00000
 367,55;  100,000;   29,000;    0,000;71,00000
 367,56;  -58,000; -147,000;    0,000;89,00000
 367,57;  -11,000; -243,000;    0,000;232,00000
 367,59;  -20,000; -248,000;    0,000;228,00000
 367,60;  126,000;  304,000;    0,000;-178,00000
 367,61;    1,000;   -4,000;    0,000; 5,00000
 367,62;   -3,000;  -15,000;    0,000;12,00000
 367,63;  -88,000; -360,000;    0,000;272,00000
 367,64;   82,000;  300,000;    0,000;-218,00000
 367,65;  128,000;  184,000;    0,000;-56,00000
 367,66;   -7,000; -168,000;    0,000;161,00000
 367,67;   48,000; -136,000;    0,000;184,00000
 367,68;  -26,000; -354,000;    0,000;328,00000
 367,69;  -12,000; -234,000;    0,000;222,00000
 367,70;    8,000; -264,000;    0,000;272,00000
 367,71;  -18,000; -182,000;    0,000;164,00000
 367,72;  -32,000; -134,000;    0,000;102,00000
 367,73;   48,000;  -47,000;    0,000;95,00000
 367,74;  110,000; -129,000;    0,000;239,00000
 367,75;  -23,000; -264,000;    0,000;241,00000
 367,76;  -37,000; -261,000;    0,000;224,00000
 367,77;    9,000;  103,000;    0,000;-94,00000
 367,78;  -44,000;   -1,000;    0,000;-43,00000
 367,80;   52,000;  463,000;    0,000;-411,00000
 367,81;  -33,000; -324,000;    0,000;291,00000
 367,82;   -9,000; -167,000;    0,000;158,00000
 367,83;  -79,000; -166,000;    0,000;87,00000
 367,84;    3,000;  -23,000;    0,000;26,00000
 367,85;   64,000;  168,000;    0,000;-104,00000
 367,86;   81,000;  -70,000;    0,000;151,00000
 367,87;   34,000; -195,000;    0,000;229,00000
 367,88;   -2,000; -487,000;    0,000;485,00000
 367,89;   76,000; -191,000;    0,000;267,00000
 367,90; -127,000;  -30,000;    0,000;-97,00000
 367,91;   19,000; -113,000;    0,000;132,00000
 367,92;  -74,000; -192,000;    0,000;118,00000
 367,93;  -43,000; -211,000;    0,000;168,00000
 367,94;   71,000;    2,000;    0,000;69,00000
 367,95;   73,000; -179,000;    0,000;252,00000
 367,96;  -73,000; -285,000;    0,000;212,00000
 367,97;  -27,000; -248,000;    0,000;221,00000
 367,98;  -22,000;  -48,000;    0,000;26,00000
 367,99;   18,000; -103,000;    0,000;121,00000
 368,00;  -48,000; -380,000;    0,000;332,00000
 368,01; -100,000; -206,000;    0,000;106,00000
 368,02;  -52,000;  148,000;    0,000;-200,00000
 368,04;  -37,000; -452,000;    0,000;415,00000
 368,05;  -76,000; -226,000;    0,000;150,00000
 368,06;   28,000;  186,000;    0,000;-158,00000
 368,07;  -65,000; -461,000;    0,000;396,00000
 368,08; -150,000; -106,000;    0,000;-44,00000
 368,09;  107,000;   30,000;    0,000;77,00000
 368,10;  -88,000;  107,000;    0,000;-195,00000
 368,11;   21,000;  111,000;    0,000;-90,00000
 368,12;   60,000; -346,000;    0,000;406,00000
 368,13;  -20,000;  -89,000;    0,000;69,00000
 368,14;   60,000;  197,000;    0,000;-137,00000
 368,15;  -55,000;  -75,000;    0,000;20,00000
 368,16;   25,000; -222,000;    0,000;247,00000
 368,17;  -49,000; -147,000;    0,000;98,00000
 368,18;  106,000; -156,000;    0,000;262,00000
 368,19;  -59,000;  -50,000;    0,000;-9,00000
 368,20;  -97,000; -529,000;    0,000;432,00000
 368,21;   52,000; -147,000;    0,000;199,00000
 368,22;  -68,000; -243,000;    0,000;175,00000
 368,23;   30,000; -110,000;    0,000;140,00000
 368,24;  -21,000; -209,000;    0,000;188,00000
 368,25;    5,000; -219,000;    0,000;224,00000
 368,26;   -6,000; -179,000;    0,000;173,00000
 368,27;   63,000;  234,000;    0,000;-171,00000
 368,28;  -39,000; -249,000;    0,000;210,00000
 368,29;  -37,000;  -51,000;    0,000;14,00000
 368,30;  -97,000;  233,000;    0,000;-330,00000
 368,32;  -88,000; -474,000;    0,000;386,00000
 368,33;   -6,000; -353,000;    0,000;347,00000
 368,34;  -24,000; -225,000;    0,000;201,00000
 368,35;   70,000;  113,000;    0,000;-43,00000
 368,36;   -5,000; -236,000;    0,000;231,00000
 368,37;  -60,000; -355,000;    0,000;295,00000
 368,38;  -14,000; -151,000;    0,000;137,00000
 368,39;   28,000;  -66,000;    0,000;94,00000
 368,40;   40,000;   20,000;    0,000;20,00000
 368,41;   -6,000;   26,000;    0,000;-32,00000
 368,42;   11,000; -178,000;    0,000;189,00000
 368,43;  -63,000;  173,000;    0,000;-236,00000
 368,44;   97,000;  -45,000;    0,000;142,00000
 368,45; -116,000; -506,000;    0,000;390,00000
 368,46;  -94,000; -399,000;    0,000;305,00000
 368,47;  -14,000;  165,000;    0,000;-179,00000
 368,48;   26,000;  148,000;    0,000;-122,00000
 368,49;  -31,000; -554,000;    0,000;523,00000
 368,50; -125,000; -415,000;    0,000;290,00000
 368,51;    1,000;  -83,000;    0,000;84,00000
 368,52;  -18,000; -116,000;    0,000;98,00000
 368,53;  -35,000; -114,000;    0,000;79,00000
 368,54;   34,000; -323,000;    0,000;357,00000
 368,55;   -4,000;  -31,000;    0,000;27,00000
 368,56;  116,000;  166,000;    0,000;-50,00000
 368,57;  -81,000; -310,000;    0,000;229,00000
 368,58;   54,000; -189,000;    0,000;243,00000
 368,59;   53,000; -247,000;    0,000;300,00000
 368,60;   23,000; -140,000;    0,000;163,00000
 368,61; -110,000; -489,000;    0,000;379,00000
 368,62;   47,000;   53,000;    0,000;-6,00000
 368,63;   45,000;  152,000;    0,000;-107,00000
 368,64;   36,000;   78,000;    0,000;-42,00000
 368,65;    4,000; -108,000;    0,000;112,00000
 368,66;    0,000; -241,000;    0,000;241,00000
 368,67;  -50,000;  157,000;    0,000;-207,00000
 368,68;   12,000;   16,000;    0,000;-4,00000
 368,70;   86,000;  -59,000;    0,000;145,00000
 368,71;   77,000;  -52,000;    0,000;129,00000
 368,72;   22,000;   52,000;    0,000;-30,00000
 368,73;  -18,000;   72,000;    0,000;-90,00000
 368,74;  -14,000; -196,000;    0,000;182,00000
 368,75;   60,000;  288,000;    0,000;-228,00000
 368,76;   35,000;  464,000;    0,000;-429,00000
 368,77;  132,000;   60,000;    0,000;72,00000
 368,78;   19,000; -168,000;    0,000;187,00000
 368,79;  -66,000; -106,000;    0,000;40,00000
 368,80;   72,000; -108,000;    0,000;180,00000
 368,81;   41,000;  -42,000;    0,000;83,00000
 368,82;   12,000; -326,000;    0,000;338,00000
 368,83;  -33,000; -156,000;    0,000;123,00000
 368,84;   13,000; -241,000;    0,000;254,00000
 368,85;    1,000;   20,000;    0,000;-19,00000
 368,86;  -61,000; -251,000;    0,000;190,00000
 368,87;   49,000; -279,000;    0,000;328,00000
 368,88;   -2,000;    2,000;    0,000;-4,00000
 368,89;   42,000; -163,000;    0,000;205,00000
 368,90;  115,000;  -98,000;    0,000;213,00000
 368,91;  -33,000; -730,000;    0,000;697,00000
 368,92;   15,000;  125,000;    0,000;-110,00000
 368,93;   52,000;  221,000;    0,000;-169,00000
 368,94;   71,000; -303,000;    0,000;374,00000
 368,95;  -65,000; -359,000;    0,000;294,00000
 368,96;   22,000;  -11,000;    0,000;33,00000
 368,97;   73,000;  -18,000;    0,000;91,00000
 368,98;  -16,000; -311,000;    0,000;295,00000
 368,99;   13,000;  -90,000;    0,000;103,00000
 369,00;   54,000; -175,000;    0,000;229,00000
 369,01;   74,000;  -36,000;    0,000;110,00000
 369,02;  -23,000; -391,000;    0,000;368,00000
 369,03;   -3,000; -132,000;    0,000;129,00000
 369,04;   63,000; -187,000;    0,000;250,00000
 369,05;   52,000;  -62,000;    0,000;114,00000
 369,06;  -27,000; -264,000;    0,000;237,00000
 369,07;    2,000;  -68,000;    0,000;70,00000
 369,08;  -23,000;  -88,000;    0,000;65,00000
 369,09;  -17,000;  438,000;    0,000;-455,00000
 369,10;  -54,000; -381,000;    0,000;327,00000
 369,11;  -50,000; -208,000;    0,000;158,00000
 369,12;   -5,000; -224,000;    0,000;219,00000
 369,13;   66,000;  126,000;    0,000;-60,00000
 369,14;   -8,000;   67,000;    0,000;-75,00000
 369,15;   -8,000; -323,000;    0,000;315,00000
 369,16;  -67,000; -202,000;    0,000;135,00000
 369,17;    7,000;   84,000;    0,000;-77,00000
 369,18;  -53,000; -113,000;    0,000;60,00000
 369,19;  -59,000; -497,000;    0,000;438,00000
 369,20; -118,000; -233,000;    0,000;115,00000
 369,21;   40,000; -225,000;    0,000;265,00000
 369,22;  -54,000; -354,000;    0,000;300,00000
 369,23;  233,000;  217,000;    0,000;16,00000
 369,24;  -95,000;  -66,000;    0,000;-29,00000
 369,25;  120,000;   57,000;    0,000;63,00000
 369,26;   40,000; -328,000;    0,000;368,00000
 369,27;   66,000;  -37,000;    0,000;103,00000
 369,28;    5,000;   69,000;    0,000;-64,00000
 369,29;   22,000; -167,000;    0,000;189,00000
 369,30;  -20,000; -325,000;    0,000;305,00000
 369,31;  -27,000; -296,000;    0,000;269,00000
 369,32;  -47,000; -122,000;    0,000;75,00000
 369,33;    8,000;  -82,000;    0,000;90,00000
 369,34;  -47,000; -397,000;    0,000;350,00000
 369,35;  135,000;  -23,000;    0,000;158,00000
 369,36;  -65,000; -138,000;    0,000;73,00000
 369,37;  -32,000;  -13,000;    0,000;-19,00000
 369,38;   54,000;  261,000;    0,000;-207,00000
 369,39;  -72,000;   -5,000;    0,000;-67,00000
 369,40;  -54,000;  -27,000;    0,000;-27,00000
 369,41;   19,000; -189,000;    0,000;208,00000
 369,42;    0,000; -270,000;    0,000;270,00000
 369,43;   -4,000;  -96,000;    0,000;92,00000
 369,44;  -82,000; -246,000;    0,000;164,00000
 369,45;   12,000;  126,000;    0,000;-114,00000
 369,46;  -40,000; -218,000;    0,000;178,00000
 369,47;  -31,000;  -51,000;    0,000;20,00000
 369,48;  -80,000; -178,000;    0,000;98,00000
 369,49;  -12,000;   19,000;    0,000;-31,00000
 369,50;  -28,000; -177,000;    0,000;149,00000
 369,51;  145,000;  -69,000;    0,000;214,00000
 369,52;  -21,000;  -61,000;    0,000;40,00000
 369,53;  -21,000; -251,000;    0,000;230,00000
 369,54;  -46,000; -108,000;    0,000;62,00000
 369,55;  -49,000;  -75,000;    0,000;26,00000
 369,56;   65,000; -282,000;    0,000;347,00000
 369,57;    1,000; -119,000;    0,000;120,00000
 369,58;   -2,000; -523,000;    0,000;521,00000
 369,59;   14,000; -356,000;    0,000;370,00000
 369,60;   64,000;  223,000;    0,000;-159,00000
 369,61; -172,000; -313,000;    0,000;141,00000
 369,62;   11,000; -211,000;    0,000;222,00000
 369,63;  194,000;  222,000;    0,000;-28,00000
 369,64;   -3,000;   50,000;    0,000;-53,00000
 369,65;  145,000;   65,000;    0,000;80,00000
 369,66; -204,000; -770,000;    0,000;566,00000
 369,67;   43,000; -142,000;    0,000;185,00000
 369,68;   13,000;  -73,000;    0,000;86,00000
 369,69;  120,000;  321,000;    0,000;-201,00000
 369,70;  -75,000; -279,000;    0,000;204,00000
 369,71;  -61,000; -329,000;    0,000;268,00000
 369,72;   44,000;   29,000;    0,000;15,00000
 369,73;   10,000;   23,000;    0,000;-13,00000
 369,74;  -54,000; -261,000;    0,000;207,00000
 369,75;    0,000; -306,000;    0,000;306,00000
 369,76;  -22,000; -188,000;    0,000;166,00000
 369,77;   31,000; -210,000;    0,000;241,00000
 369,78;  -17,000; -232,000;    0,000;215,00000
 369,79;    8,000; -241,000;    0,000;249,00000
 369,80;    0,000;  -97,000;    0,000;97,00000
 369,81;   56,000;  120,000;    0,000;-64,00000
 369,82;   56,000; -387,000;    0,000;443,00000
 369,83;   13,000; -302,000;    0,000;315,00000
 369,84;  -28,000; -152,000;    0,000;124,00000
 369,85;    1,000;  109,000;    0,000;-108,00000
 369,86;   84,000; -238,000;    0,000;322,00000
 369,87;  -43,000; -428,000;    0,000;385,00000
 369,88;  -33,000;  -99,000;    0,000;66,00000
 369,89;   17,000; -166,000;    0,000;183,00000
 369,90;   33,000;   61,000;    0,000;-28,00000
 369,91;   83,000;  -87,000;    0,000;170,00000
 369,92;  -37,000;   94,000;    0,000;-131,00000
 369,93;  141,000;  -56,000;    0,000;197,00000
 369,94;  -11,000;  -37,000;    0,000;26,00000
 369,95;   56,000; -218,000;    0,000;274,00000
 369,96;  -72,000;  227,000;    0,000;-299,00000
 369,97;  -13,000; -173,000;    0,000;160,00000
 369,98;    9,000; -148,000;    0,000;157,00000
 369,99;  -66,000;  -99,000;    0,000;33,00000
 370,00;  -70,000;   79,000;    0,000;-149,00000
 370,01;  133,000;  245,000;    0,000;-112,00000
 370,02;   14,000; -368,000;    0,000;382,00000
 370,03;  -84,000; -370,000;    0,000;286,00000
 370,04;  -71,000;  289,000;    0,000;-360,00000
 370,05;   42,000;   -3,000;    0,000;45,00000
 370,06;   33,000; -307,000;    0,000;340,00000
 370,07;  -30,000; -136,000;    0,000;106,00000
 370,08;    8,000; -243,000;    0,000;251,00000
 370,09;  146,000;  562,000;    0,000;-416,00000
 370,10;  -17,000; -329,000;    0,000;312,00000
 370,11;  -30,000; -198,000;    0,000;168,00000
 370,12;   13,000;  -32,000;    0,000;45,00000
 370,13;   79,000; -240,000;    0,000;319,00000
 370,14;   35,000;   57,000;    0,000;-22,00000
 370,14;   19,000; -163,000;    0,000;182,00000
 370,15;   11,000;    9,000;    0,000; 2,00000
 370,16;  -60,000; -218,000;    0,000;158,00000
 370,17;  -80,000; -334,000;    0,000;254,00000
 370,18;   41,000;  -28,000;    0,000;69,00000
 370,19;   20,000;  175,000;    0,000;-155,00000
 370,20;   29,000;  210,000;    0,000;-181,00000
 370,21;  -60,000; -189,000;    0,000;129,00000
 370,22;   19,000; -189,000;    0,000;208,00000
 370,23;  -75,000; -138,000;    0,000;63,00000
 370,24;  -47,000;  -79,000;    0,000;32,00000
 370,25;   -7,000;  123,000;    0,000;-130,00000
 370,26; -129,000; -633,000;    0,000;504,00000
 370,27;   28,000;   94,000;    0,000;-66,00000
 370,28;   92,000;  173,000;    0,000;-81,00000
 370,29;  -61,000; -513,000;    0,000;452,00000
 370,30;   -4,000;  -57,000;    0,000;53,00000
 370,31;   72,000;  114,000;    0,000;-42,00000
 370,32;   73,000;   67,000;    0,000; 6,00000
 370,33;    6,000; -489,000;    0,000;495,00000
 370,34;  -41,000;  -37,000;    0,000;-4,00000
 370,35;   60,000;  -82,000;    0,000;142,00000
 370,36;   17,000;  -49,000;    0,000;66,00000
 370,37;  -15,000; -320,000;    0,000;305,00000
 370,38;    8,000;  -61,000;    0,000;69,00000
 370,39;   82,000;  -56,000;    0,000;138,00000
 370,40;   25,000; -163,000;    0,000;188,00000
 370,41;   25,000; -156,000;    0,000;181,00000
 370,42;  -46,000; -410,000;    0,000;364,00000
 370,43;  -96,000; -238,000;    0,000;142,00000
 370,44;  -12,000;  -52,000;    0,000;40,00000
 370,45;   49,000; -315,000;    0,000;364,00000
 370,46;   38,000;  -62,000;    0,000;100,00000
 370,47;   -9,000;  211,000;    0,000;-220,00000
 370,48;  -15,000;   -1,000;    0,000;-14,00000
 370,49;  -20,000; -564,000;    0,000;544,00000
 370,50;   30,000; -358,000;    0,000;388,00000
 370,50;  -47,000; -249,000;    0,000;202,00000
 370,51;   91,000;    7,000;    0,000;84,00000
 370,52;  -39,000;  132,000;    0,000;-171,00000
 370,53;   53,000; -228,000;    0,000;281,00000
 370,54;  -13,000;  -17,000;    0,000; 4,00000
 370,55;   68,000;  -81,000;    0,000;149,00000
 370,56;   36,000; -166,000;    0,000;202,00000
 370,57;   48,000; -252,000;    0,000;300,00000
 370,58;   31,000;  -12,000;    0,000;43,00000
 370,59;  -49,000;   95,000;    0,000;-144,00000
 370,60;   58,000; -212,000;    0,000;270,00000
 370,61;   47,000; -105,000;    0,000;152,00000
 370,62;   80,000;  116,000;    0,000;-36,00000
 370,63;  -29,000; -244,000;    0,000;215,00000
 370,64;  -16,000; -188,000;    0,000;172,00000
 370,65;  -30,000;   -2,000;    0,000;-28,00000
 370,66;   10,000; -314,000;    0,000;324,00000
 370,67;  -83,000;   14,000;    0,000;-97,00000
 370,68;   54,000; -230,000;    0,000;284,00000
 370,69;  -69,000; -510,000;    0,000;441,00000
 370,70;   11,000;  -53,000;    0,000;64,00000
 370,71;  -70,000;  -75,000;    0,000; 5,00000
 370,72;  -43,000; -365,000;    0,000;322,00000
 370,73;   -4,000; -195,000;    0,000;191,00000
 370,74;   46,000;  -53,000;    0,000;99,00000
 370,75;  -41,000; -157,000;    0,000;116,00000
 370,76;  -27,000; -317,000;    0,000;290,00000
 370,76;   -2,000;  -91,000;    0,000;89,00000
 370,77;    0,000; -173,000;    0,000;173,00000
 370,78;  -76,000;  -57,000;    0,000;-19,00000
 370,79;  -22,000; -400,000;    0,000;378,00000
 370,80;   80,000;   35,000;    0,000;45,00000
 370,81;   11,000;  -71,000;    0,000;82,00000
 370,82;  -61,000;  -71,000;    0,000;10,00000
 370,83;  -70,000;  -72,000;    0,000; 2,00000
 370,84;  166,000; -150,000;    0,000;316,00000
 370,85;  -14,000;   68,000;    0,000;-82,00000
 370,86;  -83,000;  -12,000;    0,000;-71,00000
 370,87;   88,000; -153,000;    0,000;241,00000
 370,88;  154,000;  -64,000;    0,000;218,00000
 370,89;  -15,000;  -31,000;    0,000;16,00000
 370,90;  -14,000; -162,000;    0,000;148,00000
 370,91;  -49,000; -232,000;    0,000;183,00000
 370,92;   75,000; -263,000;    0,000;338,00000
 370,93;  -29,000; -192,000;    0,000;163,00000
 370,94;   28,000;   22,000;    0,000; 6,00000
 370,95;  -87,000;   81,000;    0,000;-168,00000
 370,96;  129,000;  -20,000;    0,000;149,00000
 370,97;  -60,000; -215,000;    0,000;155,00000
 370,98;   79,000;    2,000;    0,000;77,00000
 370,98;  -50,000; -153,000;    0,000;103,00000
 370,99;  110,000; 1252,000;    0,000;-1142,00000
 371,00;   81,000;  154,000;    0,000;-73,00000
 371,01;   -9,000; -120,000;    0,000;111,00000
 371,02;    2,000;   13,000;    0,000;-11,00000
 371,03;  162,000; -333,000;    0,000;495,00000

